Sample 1
3/25/2021 5:42 PM
Wavelength (nm)	10mm Absorbance
//WLCalib: Shift 	0.14000	
//WLCalib: 261S 	0.08000	
//WLCalib: 362S 	0.02000	
//WLCalib: 484S 	-0.04000	
//WLCalib: 529S 	0.04000	
//WLCalib: 823S 	-0.28000	
//QSpecEnd: 
220.0	6.105
220.5	5.933
221.0	5.761
221.5	5.592
222.0	5.429
222.5	5.262
223.0	5.101
223.5	4.945
224.0	4.784
224.5	4.624
225.0	4.485
225.5	4.381
226.0	4.303
226.5	4.241
227.0	4.191
227.5	4.149
228.0	4.112
228.5	4.079
229.0	4.050
229.5	4.024
230.0	3.999
230.5	3.976
231.0	3.953
231.5	3.933
232.0	3.912
232.5	3.887
233.0	3.858
233.5	3.829
234.0	3.809
234.5	3.796
235.0	3.790
235.5	3.793
236.0	3.805
236.5	3.829
237.0	3.860
237.5	3.902
238.0	3.958
238.5	4.030
239.0	4.109
239.5	4.192
240.0	4.268
240.5	4.338
241.0	4.403
241.5	4.466
242.0	4.531
242.5	4.603
243.0	4.690
243.5	4.793
244.0	4.899
244.5	4.989
245.0	5.071
245.5	5.145
246.0	5.217
246.5	5.292
247.0	5.366
247.5	5.435
248.0	5.501
248.5	5.564
249.0	5.624
249.5	5.679
250.0	5.730
250.5	5.785
251.0	5.846
251.5	5.912
252.0	5.986
252.5	6.057
253.0	6.127
253.5	6.193
254.0	6.251
254.5	6.300
255.0	6.344
255.5	6.382
256.0	6.417
256.5	6.448
257.0	6.474
257.5	6.491
258.0	6.495
258.5	6.496
259.0	6.492
259.5	6.482
260.0	6.471
260.5	6.457
261.0	6.441
261.5	6.420
262.0	6.393
262.5	6.360
263.0	6.320
263.5	6.269
264.0	6.203
264.5	6.121
265.0	6.029
265.5	5.937
266.0	5.846
266.5	5.757
267.0	5.675
267.5	5.587
268.0	5.489
268.5	5.388
269.0	5.292
269.5	5.205
270.0	5.122
270.5	5.037
271.0	4.952
271.5	4.870
272.0	4.787
272.5	4.701
273.0	4.613
273.5	4.525
274.0	4.440
274.5	4.354
275.0	4.268
275.5	4.179
276.0	4.079
276.5	3.976
277.0	3.871
277.5	3.764
278.0	3.653
278.5	3.543
279.0	3.432
279.5	3.323
280.0	3.219
280.5	3.118
281.0	3.017
281.5	2.913
282.0	2.808
282.5	2.706
283.0	2.606
283.5	2.507
284.0	2.414
284.5	2.326
285.0	2.242
285.5	2.161
286.0	2.080
286.5	1.996
287.0	1.909
287.5	1.820
288.0	1.735
288.5	1.655
289.0	1.579
289.5	1.505
290.0	1.430
290.5	1.352
291.0	1.272
291.5	1.191
292.0	1.113
292.5	1.041
293.0	0.973
293.5	0.905
294.0	0.835
294.5	0.768
295.0	0.705
295.5	0.648
296.0	0.597
296.5	0.551
297.0	0.511
297.5	0.474
298.0	0.441
298.5	0.407
299.0	0.374
299.5	0.344
300.0	0.314
300.5	0.289
301.0	0.264
301.5	0.240
302.0	0.217
302.5	0.195
303.0	0.174
303.5	0.156
304.0	0.139
304.5	0.125
305.0	0.111
305.5	0.099
306.0	0.089
306.5	0.080
307.0	0.073
307.5	0.067
308.0	0.061
308.5	0.056
309.0	0.050
309.5	0.046
310.0	0.043
310.5	0.040
311.0	0.038
311.5	0.035
312.0	0.032
312.5	0.030
313.0	0.028
313.5	0.027
314.0	0.026
314.5	0.023
315.0	0.020
315.5	0.017
316.0	0.015
316.5	0.013
317.0	0.011
317.5	0.009
318.0	0.007
318.5	0.005
319.0	0.005
319.5	0.005
320.0	0.005
320.5	0.003
321.0	0.002
321.5	-0.001
322.0	-0.002
322.5	-0.001
323.0	0.002
323.5	0.003
324.0	0.004
324.5	0.004
325.0	0.005
325.5	0.005
326.0	0.006
326.5	0.005
327.0	0.006
327.5	0.006
328.0	0.007
328.5	0.006
329.0	0.007
329.5	0.008
330.0	0.010
330.5	0.008
331.0	0.007
331.5	0.007
332.0	0.007
332.5	0.006
333.0	0.005
333.5	0.003
334.0	0.003
334.5	0.003
335.0	0.004
335.5	0.005
336.0	0.006
336.5	0.004
337.0	0.003
337.5	0.002
338.0	0.002
338.5	0.000
339.0	-0.001
339.5	0.000
340.0	0.000
340.5	0.000
341.0	0.002
341.5	0.003
342.0	0.003
342.5	0.002
343.0	0.002
343.5	0.001
344.0	0.002
344.5	0.004
345.0	0.003
345.5	0.003
346.0	0.005
346.5	0.008
347.0	0.008
347.5	0.007
348.0	0.009
348.5	0.009
349.0	0.009
349.5	0.009
350.0	0.010


Sample 2
3/25/2021 5:43 PM
Wavelength (nm)	10mm Absorbance
//WLCalib: Shift 	0.14000	
//WLCalib: 261S 	0.08000	
//WLCalib: 362S 	0.02000	
//WLCalib: 484S 	-0.04000	
//WLCalib: 529S 	0.04000	
//WLCalib: 823S 	-0.28000	
//QSpecEnd: 
220.0	13.749
220.5	13.436
221.0	13.126
221.5	12.785
222.0	12.417
222.5	12.048
223.0	11.659
223.5	11.247
224.0	10.799
224.5	10.333
225.0	9.889
225.5	9.539
226.0	9.276
226.5	9.068
227.0	8.892
227.5	8.730
228.0	8.584
228.5	8.453
229.0	8.329
229.5	8.206
230.0	8.078
230.5	7.945
231.0	7.808
231.5	7.667
232.0	7.510
232.5	7.328
233.0	7.122
233.5	6.906
234.0	6.701
234.5	6.504
235.0	6.321
235.5	6.154
236.0	6.007
236.5	5.885
237.0	5.778
237.5	5.687
238.0	5.608
238.5	5.546
239.0	5.499
239.5	5.470
240.0	5.455
240.5	5.451
241.0	5.454
241.5	5.466
242.0	5.484
242.5	5.515
243.0	5.559
243.5	5.621
244.0	5.690
244.5	5.754
245.0	5.810
245.5	5.863
246.0	5.917
246.5	5.971
247.0	6.027
247.5	6.083
248.0	6.137
248.5	6.190
249.0	6.242
249.5	6.292
250.0	6.338
250.5	6.390
251.0	6.446
251.5	6.509
252.0	6.577
252.5	6.647
253.0	6.712
253.5	6.772
254.0	6.829
254.5	6.877
255.0	6.918
255.5	6.954
256.0	6.987
256.5	7.018
257.0	7.043
257.5	7.059
258.0	7.064
258.5	7.066
259.0	7.060
259.5	7.046
260.0	7.033
260.5	7.017
261.0	6.997
261.5	6.973
262.0	6.946
262.5	6.910
263.0	6.863
263.5	6.806
264.0	6.733
264.5	6.644
265.0	6.539
265.5	6.433
266.0	6.329
266.5	6.233
267.0	6.141
267.5	6.046
268.0	5.940
268.5	5.831
269.0	5.727
269.5	5.631
270.0	5.542
270.5	5.451
271.0	5.358
271.5	5.268
272.0	5.176
272.5	5.082
273.0	4.987
273.5	4.893
274.0	4.798
274.5	4.707
275.0	4.614
275.5	4.516
276.0	4.409
276.5	4.297
277.0	4.183
277.5	4.066
278.0	3.946
278.5	3.828
279.0	3.709
279.5	3.591
280.0	3.481
280.5	3.374
281.0	3.266
281.5	3.154
282.0	3.041
282.5	2.930
283.0	2.823
283.5	2.716
284.0	2.614
284.5	2.521
285.0	2.432
285.5	2.345
286.0	2.257
286.5	2.167
287.0	2.071
287.5	1.975
288.0	1.882
288.5	1.797
289.0	1.715
289.5	1.634
290.0	1.554
290.5	1.470
291.0	1.384
291.5	1.296
292.0	1.214
292.5	1.135
293.0	1.059
293.5	0.987
294.0	0.912
294.5	0.841
295.0	0.773
295.5	0.713
296.0	0.657
296.5	0.607
297.0	0.564
297.5	0.524
298.0	0.487
298.5	0.450
299.0	0.415
299.5	0.382
300.0	0.350
300.5	0.324
301.0	0.297
301.5	0.269
302.0	0.243
302.5	0.219
303.0	0.196
303.5	0.177
304.0	0.160
304.5	0.144
305.0	0.129
305.5	0.115
306.0	0.103
306.5	0.092
307.0	0.084
307.5	0.077
308.0	0.070
308.5	0.063
309.0	0.058
309.5	0.054
310.0	0.051
310.5	0.047
311.0	0.044
311.5	0.040
312.0	0.036
312.5	0.034
313.0	0.033
313.5	0.032
314.0	0.032
314.5	0.028
315.0	0.026
315.5	0.022
316.0	0.022
316.5	0.020
317.0	0.015
317.5	0.014
318.0	0.011
318.5	0.010
319.0	0.008
319.5	0.007
320.0	0.008
320.5	0.005
321.0	0.005
321.5	0.003
322.0	0.003
322.5	0.004
323.0	0.007
323.5	0.007
324.0	0.006
324.5	0.006
325.0	0.005
325.5	0.007
326.0	0.006
326.5	0.007
327.0	0.008
327.5	0.008
328.0	0.007
328.5	0.006
329.0	0.006
329.5	0.007
330.0	0.007
330.5	0.006
331.0	0.004
331.5	0.005
332.0	0.005
332.5	0.004
333.0	0.003
333.5	0.002
334.0	0.002
334.5	0.003
335.0	0.003
335.5	0.003
336.0	0.004
336.5	0.002
337.0	0.001
337.5	0.000
338.0	-0.001
338.5	-0.002
339.0	-0.001
339.5	-0.001
340.0	0.000
340.5	-0.001
341.0	0.000
341.5	0.001
342.0	0.001
342.5	0.000
343.0	0.001
343.5	0.001
344.0	0.003
344.5	0.004
345.0	0.004
345.5	0.004
346.0	0.004
346.5	0.005
347.0	0.004
347.5	0.003
348.0	0.005
348.5	0.006
349.0	0.006
349.5	0.006
350.0	0.008


Sample 3
3/25/2021 5:44 PM
Wavelength (nm)	10mm Absorbance
//WLCalib: Shift 	0.14000	
//WLCalib: 261S 	0.08000	
//WLCalib: 362S 	0.02000	
//WLCalib: 484S 	-0.04000	
//WLCalib: 529S 	0.04000	
//WLCalib: 823S 	-0.28000	
//QSpecEnd: 
220.0	6.056
220.5	5.897
221.0	5.738
221.5	5.581
222.0	5.420
222.5	5.253
223.0	5.091
223.5	4.923
224.0	4.750
224.5	4.574
225.0	4.416
225.5	4.289
226.0	4.191
226.5	4.117
227.0	4.055
227.5	3.999
228.0	3.949
228.5	3.905
229.0	3.865
229.5	3.827
230.0	3.790
230.5	3.752
231.0	3.716
231.5	3.679
232.0	3.638
232.5	3.588
233.0	3.533
233.5	3.476
234.0	3.424
234.5	3.375
235.0	3.335
235.5	3.304
236.0	3.281
236.5	3.271
237.0	3.266
237.5	3.270
238.0	3.284
238.5	3.311
239.0	3.347
239.5	3.387
240.0	3.428
240.5	3.466
241.0	3.501
241.5	3.538
242.0	3.579
242.5	3.625
243.0	3.683
243.5	3.756
244.0	3.829
244.5	3.893
245.0	3.950
245.5	4.004
246.0	4.054
246.5	4.105
247.0	4.156
247.5	4.204
248.0	4.250
248.5	4.296
249.0	4.339
249.5	4.378
250.0	4.415
250.5	4.456
251.0	4.498
251.5	4.545
252.0	4.597
252.5	4.649
253.0	4.698
253.5	4.745
254.0	4.790
254.5	4.829
255.0	4.862
255.5	4.892
256.0	4.914
256.5	4.939
257.0	4.961
257.5	4.975
258.0	4.981
258.5	4.982
259.0	4.979
259.5	4.972
260.0	4.961
260.5	4.950
261.0	4.937
261.5	4.919
262.0	4.898
262.5	4.873
263.0	4.841
263.5	4.804
264.0	4.755
264.5	4.691
265.0	4.620
265.5	4.547
266.0	4.476
266.5	4.410
267.0	4.348
267.5	4.280
268.0	4.203
268.5	4.125
269.0	4.053
269.5	3.985
270.0	3.921
270.5	3.857
271.0	3.791
271.5	3.727
272.0	3.662
272.5	3.596
273.0	3.529
273.5	3.463
274.0	3.396
274.5	3.329
275.0	3.264
275.5	3.197
276.0	3.121
276.5	3.041
277.0	2.963
277.5	2.879
278.0	2.796
278.5	2.711
279.0	2.627
279.5	2.543
280.0	2.464
280.5	2.387
281.0	2.309
281.5	2.230
282.0	2.149
282.5	2.072
283.0	1.995
283.5	1.919
284.0	1.846
284.5	1.780
285.0	1.716
285.5	1.653
286.0	1.591
286.5	1.526
287.0	1.460
287.5	1.392
288.0	1.327
288.5	1.267
289.0	1.209
289.5	1.152
290.0	1.095
290.5	1.036
291.0	0.977
291.5	0.915
292.0	0.858
292.5	0.804
293.0	0.750
293.5	0.698
294.0	0.646
294.5	0.595
295.0	0.546
295.5	0.502
296.0	0.462
296.5	0.426
297.0	0.396
297.5	0.368
298.0	0.343
298.5	0.316
299.0	0.291
299.5	0.267
300.0	0.245
300.5	0.225
301.0	0.206
301.5	0.188
302.0	0.170
302.5	0.154
303.0	0.139
303.5	0.125
304.0	0.113
304.5	0.101
305.0	0.090
305.5	0.080
306.0	0.072
306.5	0.065
307.0	0.060
307.5	0.055
308.0	0.052
308.5	0.049
309.0	0.045
309.5	0.043
310.0	0.042
310.5	0.038
311.0	0.036
311.5	0.035
312.0	0.032
312.5	0.031
313.0	0.031
313.5	0.030
314.0	0.030
314.5	0.026
315.0	0.024
315.5	0.021
316.0	0.018
316.5	0.015
317.0	0.011
317.5	0.008
318.0	0.007
318.5	0.007
319.0	0.006
319.5	0.005
320.0	0.005
320.5	0.003
321.0	0.003
321.5	0.001
322.0	0.001
322.5	0.002
323.0	0.003
323.5	0.005
324.0	0.005
324.5	0.005
325.0	0.004
325.5	0.006
326.0	0.005
326.5	0.004
327.0	0.005
327.5	0.005
328.0	0.004
328.5	0.003
329.0	0.003
329.5	0.003
330.0	0.005
330.5	0.005
331.0	0.002
331.5	0.002
332.0	0.003
332.5	0.003
333.0	0.003
333.5	0.002
334.0	0.003
334.5	0.003
335.0	0.003
335.5	0.003
336.0	0.004
336.5	0.004
337.0	0.004
337.5	0.002
338.0	0.002
338.5	0.000
339.0	0.000
339.5	0.000
340.0	0.000
340.5	-0.002
341.0	-0.001
341.5	-0.001
342.0	-0.001
342.5	-0.002
343.0	-0.001
343.5	-0.001
344.0	0.000
344.5	-0.001
345.0	0.000
345.5	0.001
346.0	0.002
346.5	0.004
347.0	0.004
347.5	0.004
348.0	0.006
348.5	0.009
349.0	0.007
349.5	0.007
350.0	0.009


Sample 4
3/25/2021 5:44 PM
Wavelength (nm)	10mm Absorbance
//WLCalib: Shift 	0.14000	
//WLCalib: 261S 	0.08000	
//WLCalib: 362S 	0.02000	
//WLCalib: 484S 	-0.04000	
//WLCalib: 529S 	0.04000	
//WLCalib: 823S 	-0.28000	
//QSpecEnd: 
220.0	7.004
220.5	6.826
221.0	6.647
221.5	6.465
222.0	6.280
222.5	6.087
223.0	5.896
223.5	5.698
224.0	5.487
224.5	5.271
225.0	5.073
225.5	4.915
226.0	4.798
226.5	4.706
227.0	4.627
227.5	4.556
228.0	4.493
228.5	4.436
229.0	4.384
229.5	4.334
230.0	4.284
230.5	4.234
231.0	4.183
231.5	4.132
232.0	4.076
232.5	4.008
233.0	3.930
233.5	3.848
234.0	3.772
234.5	3.702
235.0	3.640
235.5	3.585
236.0	3.544
236.5	3.516
237.0	3.496
237.5	3.484
238.0	3.483
238.5	3.495
239.0	3.517
239.5	3.547
240.0	3.577
240.5	3.610
241.0	3.638
241.5	3.668
242.0	3.704
242.5	3.747
243.0	3.802
243.5	3.871
244.0	3.942
244.5	4.003
245.0	4.058
245.5	4.110
246.0	4.160
246.5	4.210
247.0	4.258
247.5	4.306
248.0	4.351
248.5	4.396
249.0	4.440
249.5	4.481
250.0	4.518
250.5	4.558
251.0	4.601
251.5	4.648
252.0	4.700
252.5	4.753
253.0	4.803
253.5	4.851
254.0	4.894
254.5	4.932
255.0	4.966
255.5	4.997
256.0	5.024
256.5	5.049
257.0	5.067
257.5	5.080
258.0	5.085
258.5	5.086
259.0	5.084
259.5	5.077
260.0	5.068
260.5	5.057
261.0	5.043
261.5	5.026
262.0	5.004
262.5	4.980
263.0	4.947
263.5	4.908
264.0	4.856
264.5	4.792
265.0	4.720
265.5	4.647
266.0	4.576
266.5	4.505
267.0	4.438
267.5	4.369
268.0	4.293
268.5	4.215
269.0	4.143
269.5	4.075
270.0	4.010
270.5	3.943
271.0	3.878
271.5	3.814
272.0	3.748
272.5	3.681
273.0	3.612
273.5	3.545
274.0	3.479
274.5	3.412
275.0	3.346
275.5	3.275
276.0	3.197
276.5	3.116
277.0	3.035
277.5	2.950
278.0	2.865
278.5	2.779
279.0	2.692
279.5	2.608
280.0	2.529
280.5	2.450
281.0	2.370
281.5	2.289
282.0	2.208
282.5	2.129
283.0	2.052
283.5	1.975
284.0	1.902
284.5	1.832
285.0	1.767
285.5	1.705
286.0	1.640
286.5	1.575
287.0	1.507
287.5	1.438
288.0	1.371
288.5	1.310
289.0	1.251
289.5	1.193
290.0	1.135
290.5	1.075
291.0	1.012
291.5	0.948
292.0	0.890
292.5	0.834
293.0	0.779
293.5	0.725
294.0	0.671
294.5	0.620
295.0	0.569
295.5	0.525
296.0	0.485
296.5	0.448
297.0	0.416
297.5	0.386
298.0	0.359
298.5	0.333
299.0	0.308
299.5	0.282
300.0	0.260
300.5	0.240
301.0	0.220
301.5	0.201
302.0	0.182
302.5	0.165
303.0	0.148
303.5	0.133
304.0	0.120
304.5	0.109
305.0	0.098
305.5	0.087
306.0	0.078
306.5	0.071
307.0	0.066
307.5	0.061
308.0	0.057
308.5	0.053
309.0	0.050
309.5	0.047
310.0	0.045
310.5	0.041
311.0	0.040
311.5	0.039
312.0	0.037
312.5	0.035
313.0	0.034
313.5	0.033
314.0	0.032
314.5	0.029
315.0	0.026
315.5	0.022
316.0	0.020
316.5	0.017
317.0	0.012
317.5	0.010
318.0	0.008
318.5	0.007
319.0	0.004
319.5	0.002
320.0	0.003
320.5	0.000
321.0	0.002
321.5	-0.001
322.0	0.000
322.5	0.002
323.0	0.005
323.5	0.005
324.0	0.006
324.5	0.007
325.0	0.006
325.5	0.007
326.0	0.007
326.5	0.008
327.0	0.010
327.5	0.010
328.0	0.011
328.5	0.009
329.0	0.010
329.5	0.010
330.0	0.010
330.5	0.008
331.0	0.007
331.5	0.008
332.0	0.008
332.5	0.007
333.0	0.007
333.5	0.006
334.0	0.006
334.5	0.007
335.0	0.006
335.5	0.007
336.0	0.007
336.5	0.005
337.0	0.004
337.5	0.003
338.0	0.002
338.5	0.001
339.0	0.000
339.5	0.000
340.0	0.000
340.5	-0.001
341.0	0.001
341.5	0.001
342.0	0.000
342.5	0.000
343.0	0.000
343.5	0.000
344.0	0.001
344.5	0.002
345.0	0.003
345.5	0.003
346.0	0.004
346.5	0.005
347.0	0.005
347.5	0.004
348.0	0.007
348.5	0.009
349.0	0.009
349.5	0.008
350.0	0.011


Sample 5
3/25/2021 5:45 PM
Wavelength (nm)	10mm Absorbance
//WLCalib: Shift 	0.14000	
//WLCalib: 261S 	0.08000	
//WLCalib: 362S 	0.02000	
//WLCalib: 484S 	-0.04000	
//WLCalib: 529S 	0.04000	
//WLCalib: 823S 	-0.28000	
//QSpecEnd: 
220.0	5.590
220.5	5.419
221.0	5.254
221.5	5.096
222.0	4.948
222.5	4.803
223.0	4.661
223.5	4.521
224.0	4.384
224.5	4.254
225.0	4.145
225.5	4.059
226.0	3.996
226.5	3.949
227.0	3.910
227.5	3.879
228.0	3.852
228.5	3.829
229.0	3.808
229.5	3.790
230.0	3.773
230.5	3.759
231.0	3.747
231.5	3.737
232.0	3.727
232.5	3.714
233.0	3.702
233.5	3.693
234.0	3.691
234.5	3.697
235.0	3.709
235.5	3.731
236.0	3.761
236.5	3.802
237.0	3.846
237.5	3.904
238.0	3.975
238.5	4.064
239.0	4.157
239.5	4.253
240.0	4.341
240.5	4.420
241.0	4.493
241.5	4.562
242.0	4.632
242.5	4.708
243.0	4.801
243.5	4.912
244.0	5.022
244.5	5.120
245.0	5.204
245.5	5.283
246.0	5.359
246.5	5.438
247.0	5.515
247.5	5.588
248.0	5.656
248.5	5.722
249.0	5.784
249.5	5.842
250.0	5.897
250.5	5.954
251.0	6.015
251.5	6.084
252.0	6.160
252.5	6.237
253.0	6.309
253.5	6.377
254.0	6.437
254.5	6.488
255.0	6.532
255.5	6.574
256.0	6.610
256.5	6.643
257.0	6.670
257.5	6.686
258.0	6.693
258.5	6.692
259.0	6.687
259.5	6.676
260.0	6.665
260.5	6.651
261.0	6.632
261.5	6.610
262.0	6.582
262.5	6.549
263.0	6.507
263.5	6.454
264.0	6.388
264.5	6.304
265.0	6.210
265.5	6.114
266.0	6.021
266.5	5.929
267.0	5.843
267.5	5.752
268.0	5.651
268.5	5.550
269.0	5.452
269.5	5.361
270.0	5.277
270.5	5.190
271.0	5.102
271.5	5.016
272.0	4.930
272.5	4.840
273.0	4.751
273.5	4.661
274.0	4.574
274.5	4.486
275.0	4.397
275.5	4.303
276.0	4.202
276.5	4.095
277.0	3.989
277.5	3.877
278.0	3.764
278.5	3.651
279.0	3.535
279.5	3.423
280.0	3.317
280.5	3.211
281.0	3.107
281.5	2.999
282.0	2.890
282.5	2.787
283.0	2.683
283.5	2.580
284.0	2.481
284.5	2.390
285.0	2.303
285.5	2.218
286.0	2.132
286.5	2.045
287.0	1.954
287.5	1.862
288.0	1.775
288.5	1.693
289.0	1.614
289.5	1.536
290.0	1.459
290.5	1.379
291.0	1.296
291.5	1.213
292.0	1.136
292.5	1.063
293.0	0.989
293.5	0.920
294.0	0.851
294.5	0.783
295.0	0.718
295.5	0.659
296.0	0.607
296.5	0.560
297.0	0.520
297.5	0.482
298.0	0.447
298.5	0.414
299.0	0.381
299.5	0.349
300.0	0.318
300.5	0.294
301.0	0.268
301.5	0.243
302.0	0.218
302.5	0.196
303.0	0.175
303.5	0.156
304.0	0.140
304.5	0.125
305.0	0.112
305.5	0.099
306.0	0.089
306.5	0.078
307.0	0.070
307.5	0.065
308.0	0.060
308.5	0.056
309.0	0.053
309.5	0.050
310.0	0.048
310.5	0.045
311.0	0.043
311.5	0.040
312.0	0.036
312.5	0.034
313.0	0.033
313.5	0.031
314.0	0.031
314.5	0.028
315.0	0.026
315.5	0.023
316.0	0.021
316.5	0.018
317.0	0.014
317.5	0.012
318.0	0.010
318.5	0.008
319.0	0.008
319.5	0.007
320.0	0.009
320.5	0.007
321.0	0.009
321.5	0.006
322.0	0.006
322.5	0.006
323.0	0.008
323.5	0.007
324.0	0.006
324.5	0.007
325.0	0.006
325.5	0.007
326.0	0.008
326.5	0.007
327.0	0.008
327.5	0.008
328.0	0.007
328.5	0.005
329.0	0.005
329.5	0.005
330.0	0.006
330.5	0.005
331.0	0.003
331.5	0.004
332.0	0.004
332.5	0.003
333.0	0.003
333.5	0.002
334.0	0.002
334.5	0.001
335.0	0.001
335.5	0.002
336.0	0.003
336.5	0.001
337.0	0.001
337.5	0.000
338.0	0.000
338.5	0.000
339.0	-0.001
339.5	0.000
340.0	0.000
340.5	-0.001
341.0	0.000
341.5	0.001
342.0	0.000
342.5	0.000
343.0	0.001
343.5	0.002
344.0	0.003
344.5	0.004
345.0	0.003
345.5	0.004
346.0	0.005
346.5	0.006
347.0	0.006
347.5	0.006
348.0	0.009
348.5	0.011
349.0	0.011
349.5	0.012
350.0	0.014


Sample 6
3/25/2021 5:45 PM
Wavelength (nm)	10mm Absorbance
//WLCalib: Shift 	0.14000	
//WLCalib: 261S 	0.08000	
//WLCalib: 362S 	0.02000	
//WLCalib: 484S 	-0.04000	
//WLCalib: 529S 	0.04000	
//WLCalib: 823S 	-0.28000	
//QSpecEnd: 
220.0	8.143
220.5	7.923
221.0	7.707
221.5	7.471
222.0	7.247
222.5	7.025
223.0	6.806
223.5	6.585
224.0	6.354
224.5	6.117
225.0	5.907
225.5	5.729
226.0	5.594
226.5	5.491
227.0	5.412
227.5	5.346
228.0	5.285
228.5	5.228
229.0	5.180
229.5	5.134
230.0	5.089
230.5	5.043
231.0	4.997
231.5	4.950
232.0	4.901
232.5	4.842
233.0	4.780
233.5	4.719
234.0	4.666
234.5	4.617
235.0	4.573
235.5	4.541
236.0	4.524
236.5	4.516
237.0	4.518
237.5	4.530
238.0	4.558
238.5	4.605
239.0	4.663
239.5	4.726
240.0	4.786
240.5	4.843
241.0	4.901
241.5	4.959
242.0	5.017
242.5	5.085
243.0	5.168
243.5	5.271
244.0	5.375
244.5	5.463
245.0	5.546
245.5	5.623
246.0	5.698
246.5	5.774
247.0	5.849
247.5	5.922
248.0	5.992
248.5	6.056
249.0	6.116
249.5	6.175
250.0	6.230
250.5	6.289
251.0	6.354
251.5	6.428
252.0	6.512
252.5	6.593
253.0	6.670
253.5	6.739
254.0	6.804
254.5	6.857
255.0	6.903
255.5	6.944
256.0	6.982
256.5	7.017
257.0	7.042
257.5	7.056
258.0	7.064
258.5	7.063
259.0	7.058
259.5	7.047
260.0	7.034
260.5	7.017
261.0	6.995
261.5	6.973
262.0	6.948
262.5	6.914
263.0	6.870
263.5	6.815
264.0	6.744
264.5	6.658
265.0	6.557
265.5	6.453
266.0	6.352
266.5	6.254
267.0	6.164
267.5	6.071
268.0	5.965
268.5	5.855
269.0	5.752
269.5	5.657
270.0	5.567
270.5	5.477
271.0	5.387
271.5	5.296
272.0	5.205
272.5	5.112
273.0	5.016
273.5	4.919
274.0	4.826
274.5	4.732
275.0	4.639
275.5	4.539
276.0	4.430
276.5	4.315
277.0	4.200
277.5	4.078
278.0	3.955
278.5	3.831
279.0	3.707
279.5	3.587
280.0	3.475
280.5	3.365
281.0	3.256
281.5	3.141
282.0	3.028
282.5	2.917
283.0	2.808
283.5	2.703
284.0	2.603
284.5	2.511
285.0	2.422
285.5	2.336
286.0	2.252
286.5	2.165
287.0	2.071
287.5	1.975
288.0	1.883
288.5	1.797
289.0	1.715
289.5	1.633
290.0	1.552
290.5	1.468
291.0	1.382
291.5	1.293
292.0	1.209
292.5	1.131
293.0	1.054
293.5	0.978
294.0	0.903
294.5	0.833
295.0	0.766
295.5	0.705
296.0	0.650
296.5	0.600
297.0	0.557
297.5	0.517
298.0	0.481
298.5	0.444
299.0	0.410
299.5	0.377
300.0	0.346
300.5	0.320
301.0	0.295
301.5	0.269
302.0	0.242
302.5	0.217
303.0	0.195
303.5	0.175
304.0	0.159
304.5	0.145
305.0	0.130
305.5	0.115
306.0	0.102
306.5	0.091
307.0	0.082
307.5	0.076
308.0	0.070
308.5	0.064
309.0	0.057
309.5	0.054
310.0	0.053
310.5	0.049
311.0	0.045
311.5	0.042
312.0	0.037
312.5	0.035
313.0	0.037
313.5	0.037
314.0	0.039
314.5	0.038
315.0	0.038
315.5	0.035
316.0	0.033
316.5	0.033
317.0	0.031
317.5	0.030
318.0	0.028
318.5	0.028
319.0	0.030
319.5	0.030
320.0	0.034
320.5	0.031
321.0	0.032
321.5	0.030
322.0	0.029
322.5	0.027
323.0	0.027
323.5	0.029
324.0	0.028
324.5	0.028
325.0	0.026
325.5	0.027
326.0	0.028
326.5	0.029
327.0	0.028
327.5	0.028
328.0	0.028
328.5	0.027
329.0	0.028
329.5	0.029
330.0	0.030
330.5	0.030
331.0	0.027
331.5	0.027
332.0	0.028
332.5	0.027
333.0	0.026
333.5	0.024
334.0	0.021
334.5	0.021
335.0	0.020
335.5	0.018
336.0	0.017
336.5	0.013
337.0	0.010
337.5	0.008
338.0	0.007
338.5	0.005
339.0	0.004
339.5	0.001
340.0	0.000
340.5	-0.002
341.0	-0.001
341.5	0.000
342.0	0.001
342.5	0.001
343.0	0.002
343.5	0.002
344.0	0.004
344.5	0.005
345.0	0.005
345.5	0.006
346.0	0.007
346.5	0.008
347.0	0.009
347.5	0.011
348.0	0.015
348.5	0.016
349.0	0.017
349.5	0.017
350.0	0.016


Sample 7
3/25/2021 5:46 PM
Wavelength (nm)	10mm Absorbance
//WLCalib: Shift 	0.14000	
//WLCalib: 261S 	0.08000	
//WLCalib: 362S 	0.02000	
//WLCalib: 484S 	-0.04000	
//WLCalib: 529S 	0.04000	
//WLCalib: 823S 	-0.28000	
//QSpecEnd: 
220.0	8.977
220.5	8.739
221.0	8.498
221.5	8.249
222.0	8.008
222.5	7.764
223.0	7.522
223.5	7.275
224.0	7.020
224.5	6.757
225.0	6.515
225.5	6.324
226.0	6.181
226.5	6.068
227.0	5.973
227.5	5.889
228.0	5.815
228.5	5.749
229.0	5.689
229.5	5.631
230.0	5.573
230.5	5.515
231.0	5.457
231.5	5.397
232.0	5.333
232.5	5.256
233.0	5.170
233.5	5.080
234.0	4.999
234.5	4.926
235.0	4.863
235.5	4.811
236.0	4.773
236.5	4.750
237.0	4.738
237.5	4.740
238.0	4.754
238.5	4.787
239.0	4.834
239.5	4.886
240.0	4.940
240.5	4.990
241.0	5.039
241.5	5.088
242.0	5.143
242.5	5.207
243.0	5.286
243.5	5.384
244.0	5.484
244.5	5.572
245.0	5.651
245.5	5.726
246.0	5.799
246.5	5.871
247.0	5.945
247.5	6.015
248.0	6.081
248.5	6.146
249.0	6.209
249.5	6.265
250.0	6.319
250.5	6.377
251.0	6.439
251.5	6.510
252.0	6.589
252.5	6.666
253.0	6.739
253.5	6.804
254.0	6.867
254.5	6.919
255.0	6.964
255.5	7.006
256.0	7.046
256.5	7.081
257.0	7.113
257.5	7.134
258.0	7.142
258.5	7.146
259.0	7.143
259.5	7.132
260.0	7.118
260.5	7.102
261.0	7.085
261.5	7.061
262.0	7.033
262.5	6.996
263.0	6.952
263.5	6.891
264.0	6.819
264.5	6.729
265.0	6.625
265.5	6.519
266.0	6.415
266.5	6.314
267.0	6.219
267.5	6.124
268.0	6.018
268.5	5.908
269.0	5.808
269.5	5.710
270.0	5.617
270.5	5.525
271.0	5.433
271.5	5.343
272.0	5.251
272.5	5.156
273.0	5.060
273.5	4.965
274.0	4.871
274.5	4.778
275.0	4.682
275.5	4.583
276.0	4.473
276.5	4.357
277.0	4.243
277.5	4.125
278.0	4.004
278.5	3.882
279.0	3.761
279.5	3.641
280.0	3.527
280.5	3.418
281.0	3.306
281.5	3.192
282.0	3.078
282.5	2.968
283.0	2.860
283.5	2.752
284.0	2.650
284.5	2.555
285.0	2.464
285.5	2.374
286.0	2.285
286.5	2.193
287.0	2.097
287.5	2.002
288.0	1.909
288.5	1.823
289.0	1.740
289.5	1.659
290.0	1.578
290.5	1.493
291.0	1.405
291.5	1.317
292.0	1.233
292.5	1.153
293.0	1.078
293.5	1.005
294.0	0.931
294.5	0.861
295.0	0.793
295.5	0.731
296.0	0.675
296.5	0.624
297.0	0.580
297.5	0.538
298.0	0.500
298.5	0.464
299.0	0.429
299.5	0.394
300.0	0.363
300.5	0.335
301.0	0.307
301.5	0.281
302.0	0.253
302.5	0.228
303.0	0.204
303.5	0.183
304.0	0.167
304.5	0.151
305.0	0.137
305.5	0.123
306.0	0.110
306.5	0.098
307.0	0.091
307.5	0.085
308.0	0.079
308.5	0.073
309.0	0.068
309.5	0.065
310.0	0.061
310.5	0.057
311.0	0.054
311.5	0.050
312.0	0.047
312.5	0.044
313.0	0.043
313.5	0.042
314.0	0.042
314.5	0.038
315.0	0.034
315.5	0.030
316.0	0.029
316.5	0.026
317.0	0.020
317.5	0.017
318.0	0.015
318.5	0.015
319.0	0.014
319.5	0.013
320.0	0.013
320.5	0.012
321.0	0.012
321.5	0.010
322.0	0.011
322.5	0.012
323.0	0.013
323.5	0.014
324.0	0.013
324.5	0.014
325.0	0.013
325.5	0.016
326.0	0.015
326.5	0.014
327.0	0.015
327.5	0.015
328.0	0.013
328.5	0.012
329.0	0.012
329.5	0.013
330.0	0.015
330.5	0.014
331.0	0.012
331.5	0.012
332.0	0.013
332.5	0.013
333.0	0.011
333.5	0.010
334.0	0.010
334.5	0.010
335.0	0.010
335.5	0.010
336.0	0.010
336.5	0.007
337.0	0.006
337.5	0.004
338.0	0.004
338.5	0.003
339.0	0.002
339.5	0.001
340.0	0.000
340.5	-0.001
341.0	0.001
341.5	0.001
342.0	0.001
342.5	0.002
343.0	0.003
343.5	0.004
344.0	0.006
344.5	0.006
345.0	0.006
345.5	0.006
346.0	0.007
346.5	0.009
347.0	0.009
347.5	0.009
348.0	0.011
348.5	0.012
349.0	0.012
349.5	0.010
350.0	0.012


Sample 8
3/25/2021 5:46 PM
Wavelength (nm)	10mm Absorbance
//WLCalib: Shift 	0.14000	
//WLCalib: 261S 	0.08000	
//WLCalib: 362S 	0.02000	
//WLCalib: 484S 	-0.04000	
//WLCalib: 529S 	0.04000	
//WLCalib: 823S 	-0.28000	
//QSpecEnd: 
220.0	9.505
220.5	9.281
221.0	9.052
221.5	8.815
222.0	8.570
222.5	8.310
223.0	8.045
223.5	7.776
224.0	7.482
224.5	7.170
225.0	6.881
225.5	6.648
226.0	6.468
226.5	6.331
227.0	6.214
227.5	6.107
228.0	6.010
228.5	5.922
229.0	5.839
229.5	5.759
230.0	5.678
230.5	5.594
231.0	5.507
231.5	5.416
232.0	5.318
232.5	5.201
233.0	5.068
233.5	4.927
234.0	4.792
234.5	4.664
235.0	4.544
235.5	4.437
236.0	4.346
236.5	4.274
237.0	4.212
237.5	4.159
238.0	4.117
238.5	4.090
239.0	4.075
239.5	4.072
240.0	4.075
240.5	4.085
241.0	4.098
241.5	4.115
242.0	4.138
242.5	4.170
243.0	4.215
243.5	4.276
244.0	4.340
244.5	4.397
245.0	4.447
245.5	4.495
246.0	4.540
246.5	4.587
247.0	4.634
247.5	4.680
248.0	4.725
248.5	4.771
249.0	4.813
249.5	4.853
250.0	4.891
250.5	4.931
251.0	4.972
251.5	5.020
252.0	5.073
252.5	5.126
253.0	5.177
253.5	5.228
254.0	5.274
254.5	5.313
255.0	5.347
255.5	5.377
256.0	5.402
256.5	5.428
257.0	5.453
257.5	5.467
258.0	5.473
258.5	5.477
259.0	5.474
259.5	5.465
260.0	5.454
260.5	5.441
261.0	5.424
261.5	5.405
262.0	5.382
262.5	5.357
263.0	5.323
263.5	5.280
264.0	5.223
264.5	5.152
265.0	5.070
265.5	4.991
266.0	4.914
266.5	4.841
267.0	4.770
267.5	4.699
268.0	4.617
268.5	4.533
269.0	4.456
269.5	4.382
270.0	4.313
270.5	4.241
271.0	4.172
271.5	4.103
272.0	4.033
272.5	3.962
273.0	3.889
273.5	3.814
274.0	3.741
274.5	3.670
275.0	3.598
275.5	3.522
276.0	3.440
276.5	3.351
277.0	3.263
277.5	3.173
278.0	3.081
278.5	2.988
279.0	2.895
279.5	2.802
280.0	2.716
280.5	2.632
281.0	2.548
281.5	2.462
282.0	2.374
282.5	2.289
283.0	2.206
283.5	2.125
284.0	2.047
284.5	1.974
285.0	1.904
285.5	1.836
286.0	1.767
286.5	1.697
287.0	1.625
287.5	1.550
288.0	1.478
288.5	1.412
289.0	1.349
289.5	1.285
290.0	1.223
290.5	1.159
291.0	1.091
291.5	1.023
292.0	0.960
292.5	0.900
293.0	0.840
293.5	0.784
294.0	0.727
294.5	0.670
295.0	0.618
295.5	0.570
296.0	0.526
296.5	0.486
297.0	0.452
297.5	0.420
298.0	0.390
298.5	0.361
299.0	0.334
299.5	0.307
300.0	0.282
300.5	0.261
301.0	0.239
301.5	0.218
302.0	0.197
302.5	0.179
303.0	0.161
303.5	0.145
304.0	0.132
304.5	0.120
305.0	0.109
305.5	0.098
306.0	0.089
306.5	0.080
307.0	0.074
307.5	0.068
308.0	0.065
308.5	0.062
309.0	0.059
309.5	0.056
310.0	0.052
310.5	0.048
311.0	0.046
311.5	0.043
312.0	0.040
312.5	0.040
313.0	0.039
313.5	0.038
314.0	0.038
314.5	0.034
315.0	0.032
315.5	0.027
316.0	0.024
316.5	0.020
317.0	0.015
317.5	0.015
318.0	0.013
318.5	0.011
319.0	0.010
319.5	0.010
320.0	0.010
320.5	0.008
321.0	0.009
321.5	0.008
322.0	0.008
322.5	0.010
323.0	0.013
323.5	0.014
324.0	0.014
324.5	0.014
325.0	0.014
325.5	0.014
326.0	0.014
326.5	0.015
327.0	0.014
327.5	0.012
328.0	0.011
328.5	0.010
329.0	0.009
329.5	0.010
330.0	0.010
330.5	0.008
331.0	0.006
331.5	0.006
332.0	0.007
332.5	0.007
333.0	0.007
333.5	0.005
334.0	0.007
334.5	0.007
335.0	0.008
335.5	0.007
336.0	0.007
336.5	0.004
337.0	0.004
337.5	0.001
338.0	0.001
338.5	0.001
339.0	0.001
339.5	0.001
340.0	0.000
340.5	-0.001
341.0	0.000
341.5	-0.001
342.0	-0.001
342.5	-0.001
343.0	0.001
343.5	0.002
344.0	0.005
344.5	0.006
345.0	0.006
345.5	0.006
346.0	0.008
346.5	0.009
347.0	0.008
347.5	0.007
348.0	0.010
348.5	0.011
349.0	0.010
349.5	0.010
350.0	0.010


Sample 9
3/25/2021 5:47 PM
Wavelength (nm)	10mm Absorbance
//WLCalib: Shift 	0.14000	
//WLCalib: 261S 	0.08000	
//WLCalib: 362S 	0.02000	
//WLCalib: 484S 	-0.04000	
//WLCalib: 529S 	0.04000	
//WLCalib: 823S 	-0.28000	
//QSpecEnd: 
220.0	3.523
220.5	3.414
221.0	3.315
221.5	3.215
222.0	3.121
222.5	3.030
223.0	2.940
223.5	2.852
224.0	2.766
224.5	2.689
225.0	2.625
225.5	2.578
226.0	2.542
226.5	2.515
227.0	2.493
227.5	2.475
228.0	2.459
228.5	2.445
229.0	2.433
229.5	2.422
230.0	2.413
230.5	2.406
231.0	2.400
231.5	2.396
232.0	2.391
232.5	2.384
233.0	2.377
233.5	2.374
234.0	2.375
234.5	2.380
235.0	2.389
235.5	2.405
236.0	2.425
236.5	2.454
237.0	2.487
237.5	2.526
238.0	2.574
238.5	2.634
239.0	2.700
239.5	2.765
240.0	2.824
240.5	2.876
241.0	2.924
241.5	2.968
242.0	3.013
242.5	3.064
243.0	3.127
243.5	3.202
244.0	3.278
244.5	3.343
245.0	3.400
245.5	3.452
246.0	3.502
246.5	3.551
247.0	3.599
247.5	3.645
248.0	3.688
248.5	3.730
249.0	3.771
249.5	3.808
250.0	3.843
250.5	3.879
251.0	3.917
251.5	3.957
252.0	4.002
252.5	4.046
253.0	4.089
253.5	4.131
254.0	4.168
254.5	4.203
255.0	4.232
255.5	4.260
256.0	4.283
256.5	4.303
257.0	4.324
257.5	4.335
258.0	4.338
258.5	4.339
259.0	4.335
259.5	4.328
260.0	4.320
260.5	4.312
261.0	4.300
261.5	4.286
262.0	4.269
262.5	4.247
263.0	4.221
263.5	4.186
264.0	4.143
264.5	4.086
265.0	4.023
265.5	3.963
266.0	3.903
266.5	3.846
267.0	3.792
267.5	3.735
268.0	3.671
268.5	3.606
269.0	3.546
269.5	3.488
270.0	3.434
270.5	3.379
271.0	3.323
271.5	3.270
272.0	3.215
272.5	3.158
273.0	3.099
273.5	3.041
274.0	2.985
274.5	2.928
275.0	2.871
275.5	2.811
276.0	2.744
276.5	2.674
277.0	2.604
277.5	2.533
278.0	2.458
278.5	2.385
279.0	2.309
279.5	2.235
280.0	2.166
280.5	2.098
281.0	2.030
281.5	1.961
282.0	1.891
282.5	1.824
283.0	1.758
283.5	1.692
284.0	1.628
284.5	1.568
285.0	1.511
285.5	1.455
286.0	1.400
286.5	1.343
287.0	1.285
287.5	1.225
288.0	1.167
288.5	1.114
289.0	1.062
289.5	1.011
290.0	0.961
290.5	0.908
291.0	0.852
291.5	0.797
292.0	0.745
292.5	0.698
293.0	0.652
293.5	0.606
294.0	0.559
294.5	0.516
295.0	0.474
295.5	0.437
296.0	0.403
296.5	0.371
297.0	0.344
297.5	0.319
298.0	0.298
298.5	0.276
299.0	0.255
299.5	0.235
300.0	0.216
300.5	0.199
301.0	0.183
301.5	0.168
302.0	0.153
302.5	0.139
303.0	0.125
303.5	0.114
304.0	0.103
304.5	0.094
305.0	0.085
305.5	0.077
306.0	0.071
306.5	0.064
307.0	0.060
307.5	0.056
308.0	0.053
308.5	0.051
309.0	0.049
309.5	0.047
310.0	0.045
310.5	0.042
311.0	0.040
311.5	0.038
312.0	0.036
312.5	0.034
313.0	0.033
313.5	0.033
314.0	0.033
314.5	0.030
315.0	0.028
315.5	0.025
316.0	0.023
316.5	0.020
317.0	0.017
317.5	0.014
318.0	0.011
318.5	0.011
319.0	0.010
319.5	0.010
320.0	0.011
320.5	0.009
321.0	0.008
321.5	0.006
322.0	0.007
322.5	0.009
323.0	0.011
323.5	0.012
324.0	0.012
324.5	0.011
325.0	0.011
325.5	0.013
326.0	0.013
326.5	0.013
327.0	0.013
327.5	0.013
328.0	0.012
328.5	0.011
329.0	0.012
329.5	0.013
330.0	0.015
330.5	0.014
331.0	0.012
331.5	0.013
332.0	0.012
332.5	0.012
333.0	0.011
333.5	0.010
334.0	0.012
334.5	0.012
335.0	0.010
335.5	0.010
336.0	0.009
336.5	0.006
337.0	0.004
337.5	0.002
338.0	0.001
338.5	0.002
339.0	0.000
339.5	0.000
340.0	0.000
340.5	-0.002
341.0	0.000
341.5	-0.001
342.0	0.000
342.5	0.000
343.0	0.002
343.5	0.003
344.0	0.005
344.5	0.006
345.0	0.006
345.5	0.006
346.0	0.006
346.5	0.006
347.0	0.007
347.5	0.006
348.0	0.010
348.5	0.013
349.0	0.012
349.5	0.011
350.0	0.011


Sample 10
3/25/2021 5:47 PM
Wavelength (nm)	10mm Absorbance
//WLCalib: Shift 	0.14000	
//WLCalib: 261S 	0.08000	
//WLCalib: 362S 	0.02000	
//WLCalib: 484S 	-0.04000	
//WLCalib: 529S 	0.04000	
//WLCalib: 823S 	-0.28000	
//QSpecEnd: 
220.0	12.764
220.5	12.486
221.0	12.192
221.5	11.881
222.0	11.554
222.5	11.203
223.0	10.843
223.5	10.464
224.0	10.044
224.5	9.596
225.0	9.174
225.5	8.836
226.0	8.580
226.5	8.376
227.0	8.201
227.5	8.038
228.0	7.889
228.5	7.751
229.0	7.623
229.5	7.495
230.0	7.362
230.5	7.221
231.0	7.076
231.5	6.924
232.0	6.757
232.5	6.560
233.0	6.337
233.5	6.099
234.0	5.871
234.5	5.651
235.0	5.443
235.5	5.252
236.0	5.082
236.5	4.935
237.0	4.804
237.5	4.684
238.0	4.571
238.5	4.471
239.0	4.389
239.5	4.329
240.0	4.286
240.5	4.256
241.0	4.236
241.5	4.224
242.0	4.221
242.5	4.228
243.0	4.246
243.5	4.280
244.0	4.320
244.5	4.356
245.0	4.388
245.5	4.422
246.0	4.453
246.5	4.485
247.0	4.517
247.5	4.550
248.0	4.583
248.5	4.618
249.0	4.654
249.5	4.688
250.0	4.720
250.5	4.754
251.0	4.790
251.5	4.829
252.0	4.871
252.5	4.917
253.0	4.959
253.5	5.000
254.0	5.042
254.5	5.076
255.0	5.106
255.5	5.133
256.0	5.157
256.5	5.179
257.0	5.195
257.5	5.208
258.0	5.211
258.5	5.210
259.0	5.207
259.5	5.198
260.0	5.186
260.5	5.173
261.0	5.159
261.5	5.140
262.0	5.119
262.5	5.093
263.0	5.059
263.5	5.018
264.0	4.965
264.5	4.898
265.0	4.819
265.5	4.742
266.0	4.669
266.5	4.597
267.0	4.530
267.5	4.462
268.0	4.385
268.5	4.307
269.0	4.235
269.5	4.166
270.0	4.100
270.5	4.034
271.0	3.966
271.5	3.900
272.0	3.832
272.5	3.764
273.0	3.695
273.5	3.625
274.0	3.557
274.5	3.488
275.0	3.419
275.5	3.346
276.0	3.267
276.5	3.181
277.0	3.097
277.5	3.011
278.0	2.923
278.5	2.836
279.0	2.749
279.5	2.663
280.0	2.580
280.5	2.500
281.0	2.420
281.5	2.338
282.0	2.256
282.5	2.177
283.0	2.098
283.5	2.022
284.0	1.948
284.5	1.878
285.0	1.811
285.5	1.747
286.0	1.683
286.5	1.616
287.0	1.546
287.5	1.477
288.0	1.410
288.5	1.348
289.0	1.288
289.5	1.228
290.0	1.168
290.5	1.106
291.0	1.041
291.5	0.976
292.0	0.916
292.5	0.861
293.0	0.805
293.5	0.752
294.0	0.698
294.5	0.645
295.0	0.595
295.5	0.549
296.0	0.507
296.5	0.469
297.0	0.436
297.5	0.406
298.0	0.379
298.5	0.352
299.0	0.326
299.5	0.300
300.0	0.275
300.5	0.255
301.0	0.233
301.5	0.213
302.0	0.192
302.5	0.174
303.0	0.157
303.5	0.142
304.0	0.130
304.5	0.119
305.0	0.108
305.5	0.097
306.0	0.089
306.5	0.080
307.0	0.075
307.5	0.071
308.0	0.066
308.5	0.063
309.0	0.060
309.5	0.059
310.0	0.056
310.5	0.053
311.0	0.050
311.5	0.047
312.0	0.045
312.5	0.045
313.0	0.044
313.5	0.043
314.0	0.042
314.5	0.038
315.0	0.036
315.5	0.032
316.0	0.030
316.5	0.026
317.0	0.022
317.5	0.019
318.0	0.017
318.5	0.016
319.0	0.013
319.5	0.011
320.0	0.010
320.5	0.006
321.0	0.005
321.5	0.004
322.0	0.005
322.5	0.006
323.0	0.008
323.5	0.009
324.0	0.010
324.5	0.009
325.0	0.008
325.5	0.009
326.0	0.008
326.5	0.009
327.0	0.010
327.5	0.010
328.0	0.010
328.5	0.009
329.0	0.009
329.5	0.010
330.0	0.011
330.5	0.010
331.0	0.008
331.5	0.008
332.0	0.009
332.5	0.009
333.0	0.010
333.5	0.008
334.0	0.010
334.5	0.010
335.0	0.010
335.5	0.010
336.0	0.010
336.5	0.008
337.0	0.005
337.5	0.004
338.0	0.003
338.5	0.003
339.0	0.001
339.5	0.000
340.0	0.000
340.5	-0.002
341.0	-0.001
341.5	0.000
342.0	0.000
342.5	0.001
343.0	0.002
343.5	0.003
344.0	0.005
344.5	0.006
345.0	0.006
345.5	0.007
346.0	0.007
346.5	0.010
347.0	0.010
347.5	0.010
348.0	0.014
348.5	0.016
349.0	0.015
349.5	0.014
350.0	0.016


Sample 11
3/25/2021 5:47 PM
Wavelength (nm)	10mm Absorbance
//WLCalib: Shift 	0.14000	
//WLCalib: 261S 	0.08000	
//WLCalib: 362S 	0.02000	
//WLCalib: 484S 	-0.04000	
//WLCalib: 529S 	0.04000	
//WLCalib: 823S 	-0.28000	
//QSpecEnd: 
220.0	8.430
220.5	8.208
221.0	7.996
221.5	7.776
222.0	7.554
222.5	7.327
223.0	7.105
223.5	6.872
224.0	6.635
224.5	6.394
225.0	6.174
225.5	5.997
226.0	5.863
226.5	5.760
227.0	5.675
227.5	5.599
228.0	5.531
228.5	5.470
229.0	5.413
229.5	5.360
230.0	5.308
230.5	5.256
231.0	5.203
231.5	5.151
232.0	5.093
232.5	5.024
233.0	4.947
233.5	4.867
234.0	4.796
234.5	4.730
235.0	4.673
235.5	4.630
236.0	4.599
236.5	4.584
237.0	4.577
237.5	4.582
238.0	4.601
238.5	4.640
239.0	4.692
239.5	4.749
240.0	4.804
240.5	4.858
241.0	4.907
241.5	4.957
242.0	5.012
242.5	5.077
243.0	5.156
243.5	5.253
244.0	5.353
244.5	5.442
245.0	5.522
245.5	5.597
246.0	5.668
246.5	5.739
247.0	5.810
247.5	5.880
248.0	5.945
248.5	6.010
249.0	6.071
249.5	6.128
250.0	6.182
250.5	6.239
251.0	6.302
251.5	6.372
252.0	6.448
252.5	6.524
253.0	6.594
253.5	6.661
254.0	6.722
254.5	6.775
255.0	6.820
255.5	6.861
256.0	6.898
256.5	6.933
257.0	6.961
257.5	6.977
258.0	6.986
258.5	6.988
259.0	6.983
259.5	6.974
260.0	6.962
260.5	6.946
261.0	6.928
261.5	6.905
262.0	6.877
262.5	6.843
263.0	6.798
263.5	6.741
264.0	6.671
264.5	6.584
265.0	6.483
265.5	6.379
266.0	6.282
266.5	6.188
267.0	6.097
267.5	6.004
268.0	5.900
268.5	5.793
269.0	5.693
269.5	5.602
270.0	5.514
270.5	5.423
271.0	5.333
271.5	5.245
272.0	5.154
272.5	5.061
273.0	4.967
273.5	4.872
274.0	4.779
274.5	4.687
275.0	4.595
275.5	4.497
276.0	4.390
276.5	4.276
277.0	4.163
277.5	4.045
278.0	3.927
278.5	3.809
279.0	3.690
279.5	3.573
280.0	3.463
280.5	3.357
281.0	3.248
281.5	3.137
282.0	3.024
282.5	2.915
283.0	2.808
283.5	2.703
284.0	2.603
284.5	2.509
285.0	2.420
285.5	2.333
286.0	2.245
286.5	2.155
287.0	2.060
287.5	1.965
288.0	1.873
288.5	1.788
289.0	1.705
289.5	1.624
290.0	1.545
290.5	1.462
291.0	1.376
291.5	1.288
292.0	1.205
292.5	1.128
293.0	1.053
293.5	0.981
294.0	0.908
294.5	0.839
295.0	0.772
295.5	0.711
296.0	0.657
296.5	0.607
297.0	0.564
297.5	0.524
298.0	0.488
298.5	0.452
299.0	0.417
299.5	0.384
300.0	0.353
300.5	0.326
301.0	0.299
301.5	0.272
302.0	0.246
302.5	0.222
303.0	0.200
303.5	0.179
304.0	0.162
304.5	0.147
305.0	0.132
305.5	0.118
306.0	0.107
306.5	0.097
307.0	0.089
307.5	0.081
308.0	0.076
308.5	0.070
309.0	0.065
309.5	0.062
310.0	0.058
310.5	0.054
311.0	0.052
311.5	0.049
312.0	0.046
312.5	0.045
313.0	0.044
313.5	0.041
314.0	0.040
314.5	0.036
315.0	0.034
315.5	0.031
316.0	0.030
316.5	0.028
317.0	0.023
317.5	0.020
318.0	0.018
318.5	0.016
319.0	0.014
319.5	0.014
320.0	0.014
320.5	0.012
321.0	0.012
321.5	0.010
322.0	0.011
322.5	0.014
323.0	0.015
323.5	0.015
324.0	0.016
324.5	0.016
325.0	0.016
325.5	0.017
326.0	0.017
326.5	0.017
327.0	0.018
327.5	0.018
328.0	0.017
328.5	0.016
329.0	0.016
329.5	0.017
330.0	0.018
330.5	0.015
331.0	0.014
331.5	0.015
332.0	0.014
332.5	0.011
333.0	0.010
333.5	0.009
334.0	0.009
334.5	0.010
335.0	0.010
335.5	0.009
336.0	0.008
336.5	0.004
337.0	0.003
337.5	0.001
338.0	0.000
338.5	0.000
339.0	-0.001
339.5	-0.001
340.0	0.000
340.5	-0.001
341.0	0.001
341.5	0.000
342.0	0.000
342.5	0.001
343.0	0.003
343.5	0.005
344.0	0.007
344.5	0.008
345.0	0.008
345.5	0.008
346.0	0.009
346.5	0.011
347.0	0.011
347.5	0.011
348.0	0.015
348.5	0.016
349.0	0.016
349.5	0.015
350.0	0.015


Sample 12
3/25/2021 5:48 PM
Wavelength (nm)	10mm Absorbance
//WLCalib: Shift 	0.14000	
//WLCalib: 261S 	0.08000	
//WLCalib: 362S 	0.02000	
//WLCalib: 484S 	-0.04000	
//WLCalib: 529S 	0.04000	
//WLCalib: 823S 	-0.28000	
//QSpecEnd: 
220.0	8.575
220.5	8.352
221.0	8.132
221.5	7.904
222.0	7.670
222.5	7.428
223.0	7.186
223.5	6.936
224.0	6.678
224.5	6.407
225.0	6.153
225.5	5.948
226.0	5.789
226.5	5.668
227.0	5.568
227.5	5.481
228.0	5.402
228.5	5.331
229.0	5.264
229.5	5.200
230.0	5.135
230.5	5.070
231.0	5.003
231.5	4.934
232.0	4.858
232.5	4.768
233.0	4.668
233.5	4.564
234.0	4.468
234.5	4.374
235.0	4.287
235.5	4.212
236.0	4.148
236.5	4.103
237.0	4.068
237.5	4.043
238.0	4.029
238.5	4.032
239.0	4.048
239.5	4.072
240.0	4.100
240.5	4.129
241.0	4.160
241.5	4.191
242.0	4.228
242.5	4.272
243.0	4.328
243.5	4.403
244.0	4.481
244.5	4.549
245.0	4.612
245.5	4.672
246.0	4.728
246.5	4.786
247.0	4.843
247.5	4.897
248.0	4.950
248.5	5.001
249.0	5.050
249.5	5.098
250.0	5.143
250.5	5.192
251.0	5.244
251.5	5.301
252.0	5.365
252.5	5.427
253.0	5.486
253.5	5.541
254.0	5.591
254.5	5.635
255.0	5.674
255.5	5.708
256.0	5.741
256.5	5.771
257.0	5.798
257.5	5.815
258.0	5.822
258.5	5.826
259.0	5.825
259.5	5.815
260.0	5.806
260.5	5.793
261.0	5.777
261.5	5.758
262.0	5.735
262.5	5.707
263.0	5.673
263.5	5.626
264.0	5.568
264.5	5.493
265.0	5.409
265.5	5.324
266.0	5.241
266.5	5.162
267.0	5.086
267.5	5.006
268.0	4.917
268.5	4.828
269.0	4.746
269.5	4.667
270.0	4.592
270.5	4.516
271.0	4.441
271.5	4.366
272.0	4.290
272.5	4.211
273.0	4.132
273.5	4.052
274.0	3.974
274.5	3.897
275.0	3.821
275.5	3.741
276.0	3.653
276.5	3.559
277.0	3.466
277.5	3.369
278.0	3.270
278.5	3.171
279.0	3.071
279.5	2.971
280.0	2.878
280.5	2.788
281.0	2.698
281.5	2.605
282.0	2.512
282.5	2.420
283.0	2.330
283.5	2.240
284.0	2.155
284.5	2.076
285.0	2.000
285.5	1.927
286.0	1.852
286.5	1.777
287.0	1.700
287.5	1.622
288.0	1.545
288.5	1.473
289.0	1.406
289.5	1.339
290.0	1.271
290.5	1.200
291.0	1.130
291.5	1.056
292.0	0.986
292.5	0.923
293.0	0.859
293.5	0.800
294.0	0.739
294.5	0.678
295.0	0.621
295.5	0.570
296.0	0.523
296.5	0.480
297.0	0.442
297.5	0.408
298.0	0.377
298.5	0.346
299.0	0.318
299.5	0.291
300.0	0.265
300.5	0.242
301.0	0.218
301.5	0.197
302.0	0.175
302.5	0.157
303.0	0.138
303.5	0.122
304.0	0.108
304.5	0.096
305.0	0.084
305.5	0.073
306.0	0.065
306.5	0.056
307.0	0.048
307.5	0.043
308.0	0.039
308.5	0.036
309.0	0.032
309.5	0.031
310.0	0.028
310.5	0.026
311.0	0.025
311.5	0.022
312.0	0.019
312.5	0.021
313.0	0.021
313.5	0.020
314.0	0.020
314.5	0.019
315.0	0.017
315.5	0.016
316.0	0.014
316.5	0.011
317.0	0.006
317.5	0.005
318.0	0.003
318.5	0.001
319.0	0.000
319.5	0.001
320.0	0.000
320.5	-0.001
321.0	0.000
321.5	-0.003
322.0	-0.002
322.5	-0.001
323.0	0.001
323.5	0.003
324.0	0.004
324.5	0.005
325.0	0.005
325.5	0.006
326.0	0.006
326.5	0.006
327.0	0.006
327.5	0.007
328.0	0.007
328.5	0.005
329.0	0.005
329.5	0.007
330.0	0.009
330.5	0.008
331.0	0.007
331.5	0.008
332.0	0.009
332.5	0.009
333.0	0.008
333.5	0.007
334.0	0.009
334.5	0.009
335.0	0.009
335.5	0.008
336.0	0.007
336.5	0.005
337.0	0.004
337.5	0.002
338.0	0.001
338.5	0.001
339.0	0.001
339.5	0.000
340.0	0.000
340.5	-0.001
341.0	0.001
341.5	0.002
342.0	0.004
342.5	0.005
343.0	0.007
343.5	0.009
344.0	0.012
344.5	0.014
345.0	0.015
345.5	0.016
346.0	0.017
346.5	0.018
347.0	0.019
347.5	0.019
348.0	0.023
348.5	0.025
349.0	0.024
349.5	0.022
350.0	0.023


Sample 13
3/25/2021 5:48 PM
Wavelength (nm)	10mm Absorbance
//WLCalib: Shift 	0.14000	
//WLCalib: 261S 	0.08000	
//WLCalib: 362S 	0.02000	
//WLCalib: 484S 	-0.04000	
//WLCalib: 529S 	0.04000	
//WLCalib: 823S 	-0.28000	
//QSpecEnd: 
220.0	-0.158
220.5	-0.149
221.0	-0.147
221.5	-0.148
222.0	-0.142
222.5	-0.138
223.0	-0.135
223.5	-0.134
224.0	-0.136
224.5	-0.137
225.0	-0.134
225.5	-0.133
226.0	-0.132
226.5	-0.131
227.0	-0.125
227.5	-0.121
228.0	-0.117
228.5	-0.115
229.0	-0.113
229.5	-0.111
230.0	-0.109
230.5	-0.108
231.0	-0.107
231.5	-0.104
232.0	-0.101
232.5	-0.099
233.0	-0.096
233.5	-0.091
234.0	-0.085
234.5	-0.085
235.0	-0.084
235.5	-0.085
236.0	-0.086
236.5	-0.085
237.0	-0.087
237.5	-0.088
238.0	-0.088
238.5	-0.090
239.0	-0.090
239.5	-0.091
240.0	-0.090
240.5	-0.086
241.0	-0.085
241.5	-0.085
242.0	-0.084
242.5	-0.083
243.0	-0.084
243.5	-0.084
244.0	-0.084
244.5	-0.082
245.0	-0.080
245.5	-0.078
246.0	-0.075
246.5	-0.074
247.0	-0.073
247.5	-0.072
248.0	-0.072
248.5	-0.072
249.0	-0.072
249.5	-0.072
250.0	-0.071
250.5	-0.070
251.0	-0.068
251.5	-0.065
252.0	-0.063
252.5	-0.063
253.0	-0.064
253.5	-0.065
254.0	-0.064
254.5	-0.064
255.0	-0.063
255.5	-0.063
256.0	-0.061
256.5	-0.058
257.0	-0.057
257.5	-0.057
258.0	-0.055
258.5	-0.055
259.0	-0.054
259.5	-0.056
260.0	-0.055
260.5	-0.055
261.0	-0.054
261.5	-0.054
262.0	-0.052
262.5	-0.051
263.0	-0.051
263.5	-0.052
264.0	-0.053
264.5	-0.055
265.0	-0.055
265.5	-0.054
266.0	-0.053
266.5	-0.056
267.0	-0.055
267.5	-0.057
268.0	-0.055
268.5	-0.056
269.0	-0.055
269.5	-0.056
270.0	-0.052
270.5	-0.050
271.0	-0.048
271.5	-0.047
272.0	-0.045
272.5	-0.045
273.0	-0.046
273.5	-0.045
274.0	-0.043
274.5	-0.041
275.0	-0.038
275.5	-0.037
276.0	-0.035
276.5	-0.034
277.0	-0.031
277.5	-0.032
278.0	-0.033
278.5	-0.032
279.0	-0.032
279.5	-0.033
280.0	-0.031
280.5	-0.028
281.0	-0.027
281.5	-0.025
282.0	-0.025
282.5	-0.024
283.0	-0.023
283.5	-0.023
284.0	-0.023
284.5	-0.025
285.0	-0.024
285.5	-0.023
286.0	-0.022
286.5	-0.021
287.0	-0.019
287.5	-0.016
288.0	-0.017
288.5	-0.018
289.0	-0.018
289.5	-0.018
290.0	-0.018
290.5	-0.019
291.0	-0.017
291.5	-0.017
292.0	-0.014
292.5	-0.013
293.0	-0.015
293.5	-0.013
294.0	-0.014
294.5	-0.014
295.0	-0.015
295.5	-0.014
296.0	-0.013
296.5	-0.014
297.0	-0.013
297.5	-0.014
298.0	-0.014
298.5	-0.013
299.0	-0.013
299.5	-0.014
300.0	-0.015
300.5	-0.014
301.0	-0.014
301.5	-0.014
302.0	-0.014
302.5	-0.012
303.0	-0.012
303.5	-0.011
304.0	-0.010
304.5	-0.009
305.0	-0.009
305.5	-0.008
306.0	-0.008
306.5	-0.007
307.0	-0.004
307.5	-0.002
308.0	0.000
308.5	0.002
309.0	0.003
309.5	0.006
310.0	0.007
310.5	0.005
311.0	0.005
311.5	0.005
312.0	0.004
312.5	0.006
313.0	0.007
313.5	0.009
314.0	0.009
314.5	0.005
315.0	0.004
315.5	0.002
316.0	0.001
316.5	-0.002
317.0	-0.006
317.5	-0.007
318.0	-0.008
318.5	-0.006
319.0	-0.007
319.5	-0.008
320.0	-0.009
320.5	-0.009
321.0	-0.008
321.5	-0.009
322.0	-0.007
322.5	-0.005
323.0	-0.002
323.5	0.000
324.0	0.001
324.5	0.002
325.0	0.000
325.5	0.001
326.0	0.001
326.5	0.001
327.0	0.002
327.5	0.001
328.0	0.001
328.5	-0.001
329.0	0.000
329.5	0.000
330.0	0.003
330.5	0.002
331.0	0.000
331.5	0.002
332.0	0.004
332.5	0.004
333.0	0.005
333.5	0.005
334.0	0.005
334.5	0.006
335.0	0.006
335.5	0.006
336.0	0.005
336.5	0.003
337.0	0.003
337.5	0.001
338.0	0.001
338.5	0.000
339.0	-0.001
339.5	-0.001
340.0	0.000
340.5	-0.001
341.0	0.000
341.5	0.001
342.0	0.003
342.5	0.004
343.0	0.007
343.5	0.008
344.0	0.011
344.5	0.010
345.0	0.011
345.5	0.011
346.0	0.013
346.5	0.015
347.0	0.017
347.5	0.016
348.0	0.020
348.5	0.022
349.0	0.021
349.5	0.021
350.0	0.020


Sample 14
3/25/2021 5:49 PM
Wavelength (nm)	10mm Absorbance
//WLCalib: Shift 	0.14000	
//WLCalib: 261S 	0.08000	
//WLCalib: 362S 	0.02000	
//WLCalib: 484S 	-0.04000	
//WLCalib: 529S 	0.04000	
//WLCalib: 823S 	-0.28000	
//QSpecEnd: 
220.0	6.597
220.5	6.401
221.0	6.211
221.5	6.019
222.0	5.838
222.5	5.660
223.0	5.490
223.5	5.322
224.0	5.156
224.5	4.997
225.0	4.864
225.5	4.760
226.0	4.680
226.5	4.622
227.0	4.575
227.5	4.535
228.0	4.501
228.5	4.473
229.0	4.447
229.5	4.425
230.0	4.404
230.5	4.386
231.0	4.370
231.5	4.357
232.0	4.343
232.5	4.325
233.0	4.307
233.5	4.295
234.0	4.290
234.5	4.291
235.0	4.301
235.5	4.322
236.0	4.350
236.5	4.391
237.0	4.442
237.5	4.506
238.0	4.584
238.5	4.683
239.0	4.792
239.5	4.902
240.0	5.003
240.5	5.094
241.0	5.177
241.5	5.254
242.0	5.335
242.5	5.426
243.0	5.532
243.5	5.660
244.0	5.789
244.5	5.900
245.0	5.998
245.5	6.091
246.0	6.180
246.5	6.269
247.0	6.357
247.5	6.442
248.0	6.522
248.5	6.600
249.0	6.672
249.5	6.739
250.0	6.801
250.5	6.867
251.0	6.939
251.5	7.020
252.0	7.109
252.5	7.197
253.0	7.280
253.5	7.357
254.0	7.426
254.5	7.486
255.0	7.540
255.5	7.585
256.0	7.626
256.5	7.668
257.0	7.704
257.5	7.726
258.0	7.734
258.5	7.735
259.0	7.731
259.5	7.718
260.0	7.705
260.5	7.690
261.0	7.669
261.5	7.645
262.0	7.613
262.5	7.576
263.0	7.529
263.5	7.467
264.0	7.386
264.5	7.290
265.0	7.179
265.5	7.072
266.0	6.966
266.5	6.861
267.0	6.762
267.5	6.661
268.0	6.543
268.5	6.425
269.0	6.315
269.5	6.210
270.0	6.112
270.5	6.011
271.0	5.911
271.5	5.814
272.0	5.712
272.5	5.609
273.0	5.503
273.5	5.398
274.0	5.298
274.5	5.196
275.0	5.094
275.5	4.986
276.0	4.867
276.5	4.741
277.0	4.617
277.5	4.487
278.0	4.355
278.5	4.223
279.0	4.092
279.5	3.964
280.0	3.843
280.5	3.723
281.0	3.602
281.5	3.477
282.0	3.352
282.5	3.229
283.0	3.111
283.5	2.993
284.0	2.881
284.5	2.777
285.0	2.679
285.5	2.582
286.0	2.484
286.5	2.382
287.0	2.278
287.5	2.173
288.0	2.071
288.5	1.976
289.0	1.884
289.5	1.794
290.0	1.705
290.5	1.612
291.0	1.517
291.5	1.421
292.0	1.330
292.5	1.245
293.0	1.162
293.5	1.083
294.0	1.002
294.5	0.923
295.0	0.847
295.5	0.780
296.0	0.719
296.5	0.664
297.0	0.616
297.5	0.573
298.0	0.533
298.5	0.493
299.0	0.455
299.5	0.417
300.0	0.383
300.5	0.352
301.0	0.322
301.5	0.293
302.0	0.264
302.5	0.238
303.0	0.213
303.5	0.192
304.0	0.173
304.5	0.157
305.0	0.141
305.5	0.126
306.0	0.113
306.5	0.101
307.0	0.094
307.5	0.087
308.0	0.081
308.5	0.076
309.0	0.069
309.5	0.066
310.0	0.062
310.5	0.058
311.0	0.056
311.5	0.052
312.0	0.049
312.5	0.048
313.0	0.046
313.5	0.043
314.0	0.042
314.5	0.038
315.0	0.033
315.5	0.030
316.0	0.027
316.5	0.023
317.0	0.019
317.5	0.017
318.0	0.014
318.5	0.012
319.0	0.011
319.5	0.009
320.0	0.009
320.5	0.007
321.0	0.007
321.5	0.007
322.0	0.009
322.5	0.011
323.0	0.014
323.5	0.014
324.0	0.014
324.5	0.014
325.0	0.014
325.5	0.015
326.0	0.014
326.5	0.015
327.0	0.015
327.5	0.014
328.0	0.012
328.5	0.010
329.0	0.010
329.5	0.011
330.0	0.012
330.5	0.010
331.0	0.009
331.5	0.011
332.0	0.012
332.5	0.010
333.0	0.009
333.5	0.008
334.0	0.009
334.5	0.010
335.0	0.009
335.5	0.009
336.0	0.008
336.5	0.006
337.0	0.004
337.5	0.002
338.0	0.002
338.5	0.001
339.0	-0.001
339.5	-0.002
340.0	0.000
340.5	0.000
341.0	0.001
341.5	0.001
342.0	0.001
342.5	0.002
343.0	0.005
343.5	0.006
344.0	0.009
344.5	0.009
345.0	0.009
345.5	0.009
346.0	0.010
346.5	0.012
347.0	0.012
347.5	0.012
348.0	0.014
348.5	0.016
349.0	0.015
349.5	0.014
350.0	0.013


Sample 15
3/25/2021 5:49 PM
Wavelength (nm)	10mm Absorbance
//WLCalib: Shift 	0.14000	
//WLCalib: 261S 	0.08000	
//WLCalib: 362S 	0.02000	
//WLCalib: 484S 	-0.04000	
//WLCalib: 529S 	0.04000	
//WLCalib: 823S 	-0.28000	
//QSpecEnd: 
220.0	5.840
220.5	5.661
221.0	5.490
221.5	5.324
222.0	5.162
222.5	5.005
223.0	4.855
223.5	4.712
224.0	4.569
224.5	4.431
225.0	4.313
225.5	4.223
226.0	4.158
226.5	4.109
227.0	4.068
227.5	4.035
228.0	4.007
228.5	3.983
229.0	3.961
229.5	3.943
230.0	3.927
230.5	3.913
231.0	3.900
231.5	3.890
232.0	3.880
232.5	3.868
233.0	3.856
233.5	3.847
234.0	3.846
234.5	3.851
235.0	3.866
235.5	3.890
236.0	3.921
236.5	3.964
237.0	4.012
237.5	4.072
238.0	4.147
238.5	4.241
239.0	4.343
239.5	4.446
240.0	4.538
240.5	4.624
241.0	4.701
241.5	4.773
242.0	4.848
242.5	4.929
243.0	5.026
243.5	5.142
244.0	5.260
244.5	5.362
245.0	5.453
245.5	5.536
246.0	5.616
246.5	5.696
247.0	5.776
247.5	5.854
248.0	5.925
248.5	5.994
249.0	6.060
249.5	6.120
250.0	6.177
250.5	6.236
251.0	6.301
251.5	6.372
252.0	6.451
252.5	6.529
253.0	6.605
253.5	6.675
254.0	6.740
254.5	6.796
255.0	6.843
255.5	6.887
256.0	6.926
256.5	6.962
257.0	6.993
257.5	7.014
258.0	7.021
258.5	7.023
259.0	7.020
259.5	7.007
260.0	6.993
260.5	6.976
261.0	6.957
261.5	6.933
262.0	6.905
262.5	6.871
263.0	6.827
263.5	6.772
264.0	6.700
264.5	6.613
265.0	6.513
265.5	6.410
266.0	6.311
266.5	6.215
267.0	6.128
267.5	6.035
268.0	5.930
268.5	5.822
269.0	5.720
269.5	5.627
270.0	5.538
270.5	5.448
271.0	5.357
271.5	5.269
272.0	5.179
272.5	5.084
273.0	4.991
273.5	4.897
274.0	4.807
274.5	4.715
275.0	4.622
275.5	4.525
276.0	4.416
276.5	4.304
277.0	4.192
277.5	4.075
278.0	3.955
278.5	3.836
279.0	3.717
279.5	3.599
280.0	3.487
280.5	3.378
281.0	3.268
281.5	3.155
282.0	3.042
282.5	2.931
283.0	2.823
283.5	2.717
284.0	2.616
284.5	2.520
285.0	2.430
285.5	2.341
286.0	2.253
286.5	2.161
287.0	2.065
287.5	1.968
288.0	1.877
288.5	1.792
289.0	1.709
289.5	1.627
290.0	1.546
290.5	1.462
291.0	1.376
291.5	1.289
292.0	1.207
292.5	1.129
293.0	1.054
293.5	0.980
294.0	0.907
294.5	0.838
295.0	0.772
295.5	0.710
296.0	0.654
296.5	0.604
297.0	0.560
297.5	0.520
298.0	0.484
298.5	0.448
299.0	0.414
299.5	0.380
300.0	0.349
300.5	0.323
301.0	0.296
301.5	0.270
302.0	0.243
302.5	0.218
303.0	0.196
303.5	0.177
304.0	0.160
304.5	0.146
305.0	0.131
305.5	0.119
306.0	0.108
306.5	0.096
307.0	0.088
307.5	0.080
308.0	0.074
308.5	0.069
309.0	0.064
309.5	0.061
310.0	0.058
310.5	0.054
311.0	0.051
311.5	0.048
312.0	0.045
312.5	0.043
313.0	0.040
313.5	0.038
314.0	0.037
314.5	0.033
315.0	0.030
315.5	0.027
316.0	0.026
316.5	0.024
317.0	0.019
317.5	0.017
318.0	0.014
318.5	0.013
319.0	0.012
319.5	0.011
320.0	0.012
320.5	0.010
321.0	0.009
321.5	0.009
322.0	0.011
322.5	0.013
323.0	0.015
323.5	0.016
324.0	0.014
324.5	0.015
325.0	0.014
325.5	0.015
326.0	0.014
326.5	0.014
327.0	0.015
327.5	0.014
328.0	0.014
328.5	0.013
329.0	0.014
329.5	0.014
330.0	0.014
330.5	0.012
331.0	0.009
331.5	0.009
332.0	0.010
332.5	0.010
333.0	0.010
333.5	0.008
334.0	0.009
334.5	0.010
335.0	0.009
335.5	0.008
336.0	0.007
336.5	0.004
337.0	0.002
337.5	0.001
338.0	0.001
338.5	0.001
339.0	0.000
339.5	0.000
340.0	0.000
340.5	-0.002
341.0	-0.001
341.5	-0.001
342.0	-0.002
342.5	-0.001
343.0	0.001
343.5	0.003
344.0	0.005
344.5	0.007
345.0	0.007
345.5	0.007
346.0	0.009
346.5	0.010
347.0	0.011
347.5	0.011
348.0	0.016
348.5	0.018
349.0	0.017
349.5	0.015
350.0	0.016


Sample 16
3/25/2021 5:50 PM
Wavelength (nm)	10mm Absorbance
//WLCalib: Shift 	0.14000	
//WLCalib: 261S 	0.08000	
//WLCalib: 362S 	0.02000	
//WLCalib: 484S 	-0.04000	
//WLCalib: 529S 	0.04000	
//WLCalib: 823S 	-0.28000	
//QSpecEnd: 
220.0	6.813
220.5	6.619
221.0	6.428
221.5	6.235
222.0	6.049
222.5	5.863
223.0	5.688
223.5	5.509
224.0	5.326
224.5	5.147
225.0	4.992
225.5	4.871
226.0	4.778
226.5	4.708
227.0	4.651
227.5	4.603
228.0	4.559
228.5	4.521
229.0	4.488
229.5	4.456
230.0	4.426
230.5	4.396
231.0	4.370
231.5	4.344
232.0	4.317
232.5	4.282
233.0	4.245
233.5	4.210
234.0	4.183
234.5	4.162
235.0	4.149
235.5	4.146
236.0	4.153
236.5	4.173
237.0	4.200
237.5	4.238
238.0	4.293
238.5	4.362
239.0	4.443
239.5	4.526
240.0	4.603
240.5	4.674
241.0	4.737
241.5	4.798
242.0	4.863
242.5	4.937
243.0	5.026
243.5	5.133
244.0	5.242
244.5	5.337
245.0	5.421
245.5	5.499
246.0	5.573
246.5	5.649
247.0	5.724
247.5	5.796
248.0	5.864
248.5	5.931
249.0	5.995
249.5	6.052
250.0	6.105
250.5	6.162
251.0	6.224
251.5	6.291
252.0	6.366
252.5	6.442
253.0	6.513
253.5	6.582
254.0	6.646
254.5	6.697
255.0	6.742
255.5	6.781
256.0	6.819
256.5	6.852
257.0	6.879
257.5	6.900
258.0	6.910
258.5	6.911
259.0	6.907
259.5	6.896
260.0	6.884
260.5	6.869
261.0	6.848
261.5	6.823
262.0	6.795
262.5	6.763
263.0	6.721
263.5	6.665
264.0	6.595
264.5	6.507
265.0	6.407
265.5	6.303
266.0	6.206
266.5	6.113
267.0	6.023
267.5	5.929
268.0	5.827
268.5	5.724
269.0	5.625
269.5	5.532
270.0	5.442
270.5	5.353
271.0	5.264
271.5	5.176
272.0	5.086
272.5	4.994
273.0	4.902
273.5	4.808
274.0	4.717
274.5	4.629
275.0	4.539
275.5	4.442
276.0	4.335
276.5	4.224
277.0	4.113
277.5	3.999
278.0	3.882
278.5	3.765
279.0	3.647
279.5	3.533
280.0	3.424
280.5	3.318
281.0	3.210
281.5	3.100
282.0	2.988
282.5	2.878
283.0	2.772
283.5	2.669
284.0	2.570
284.5	2.477
285.0	2.388
285.5	2.302
286.0	2.216
286.5	2.127
287.0	2.034
287.5	1.940
288.0	1.849
288.5	1.764
289.0	1.683
289.5	1.603
290.0	1.525
290.5	1.443
291.0	1.357
291.5	1.271
292.0	1.191
292.5	1.114
293.0	1.040
293.5	0.968
294.0	0.896
294.5	0.826
295.0	0.760
295.5	0.701
296.0	0.647
296.5	0.596
297.0	0.554
297.5	0.515
298.0	0.479
298.5	0.444
299.0	0.410
299.5	0.377
300.0	0.347
300.5	0.321
301.0	0.294
301.5	0.269
302.0	0.243
302.5	0.219
303.0	0.197
303.5	0.177
304.0	0.161
304.5	0.146
305.0	0.131
305.5	0.118
306.0	0.106
306.5	0.095
307.0	0.087
307.5	0.080
308.0	0.074
308.5	0.068
309.0	0.063
309.5	0.059
310.0	0.056
310.5	0.052
311.0	0.050
311.5	0.047
312.0	0.044
312.5	0.043
313.0	0.041
313.5	0.040
314.0	0.039
314.5	0.035
315.0	0.031
315.5	0.029
316.0	0.029
316.5	0.026
317.0	0.021
317.5	0.019
318.0	0.016
318.5	0.014
319.0	0.012
319.5	0.011
320.0	0.011
320.5	0.009
321.0	0.010
321.5	0.008
322.0	0.010
322.5	0.012
323.0	0.012
323.5	0.012
324.0	0.011
324.5	0.010
325.0	0.009
325.5	0.010
326.0	0.010
326.5	0.011
327.0	0.012
327.5	0.011
328.0	0.010
328.5	0.008
329.0	0.009
329.5	0.010
330.0	0.011
330.5	0.010
331.0	0.009
331.5	0.010
332.0	0.011
332.5	0.010
333.0	0.010
333.5	0.009
334.0	0.010
334.5	0.010
335.0	0.010
335.5	0.009
336.0	0.008
336.5	0.005
337.0	0.003
337.5	0.001
338.0	0.001
338.5	0.000
339.0	-0.001
339.5	0.000
340.0	0.000
340.5	-0.002
341.0	-0.001
341.5	0.000
342.0	-0.001
342.5	0.000
343.0	0.003
343.5	0.004
344.0	0.006
344.5	0.007
345.0	0.008
345.5	0.009
346.0	0.009
346.5	0.010
347.0	0.009
347.5	0.009
348.0	0.014
348.5	0.016
349.0	0.015
349.5	0.014
350.0	0.013


Sample 17
3/25/2021 5:50 PM
Wavelength (nm)	10mm Absorbance
//WLCalib: Shift 	0.14000	
//WLCalib: 261S 	0.08000	
//WLCalib: 362S 	0.02000	
//WLCalib: 484S 	-0.04000	
//WLCalib: 529S 	0.04000	
//WLCalib: 823S 	-0.28000	
//QSpecEnd: 
220.0	6.324
220.5	6.127
221.0	5.943
221.5	5.757
222.0	5.586
222.5	5.426
223.0	5.269
223.5	5.119
224.0	4.974
224.5	4.840
225.0	4.730
225.5	4.647
226.0	4.587
226.5	4.541
227.0	4.507
227.5	4.481
228.0	4.458
228.5	4.439
229.0	4.424
229.5	4.411
230.0	4.401
230.5	4.395
231.0	4.392
231.5	4.392
232.0	4.393
232.5	4.394
233.0	4.399
233.5	4.409
234.0	4.430
234.5	4.457
235.0	4.492
235.5	4.538
236.0	4.592
236.5	4.656
237.0	4.729
237.5	4.814
238.0	4.917
238.5	5.041
239.0	5.178
239.5	5.310
240.0	5.433
240.5	5.542
241.0	5.640
241.5	5.731
242.0	5.825
242.5	5.929
243.0	6.048
243.5	6.190
244.0	6.334
244.5	6.458
245.0	6.568
245.5	6.671
246.0	6.770
246.5	6.869
247.0	6.969
247.5	7.063
248.0	7.152
248.5	7.238
249.0	7.318
249.5	7.392
250.0	7.461
250.5	7.535
251.0	7.614
251.5	7.704
252.0	7.802
252.5	7.902
253.0	7.995
253.5	8.084
254.0	8.162
254.5	8.228
255.0	8.289
255.5	8.341
256.0	8.384
256.5	8.431
257.0	8.468
257.5	8.494
258.0	8.503
258.5	8.505
259.0	8.501
259.5	8.491
260.0	8.476
260.5	8.453
261.0	8.429
261.5	8.399
262.0	8.367
262.5	8.322
263.0	8.267
263.5	8.201
264.0	8.113
264.5	8.008
265.0	7.885
265.5	7.762
266.0	7.644
266.5	7.527
267.0	7.417
267.5	7.299
268.0	7.173
268.5	7.045
269.0	6.926
269.5	6.812
270.0	6.702
270.5	6.591
271.0	6.484
271.5	6.376
272.0	6.266
272.5	6.153
273.0	6.038
273.5	5.926
274.0	5.814
274.5	5.703
275.0	5.594
275.5	5.476
276.0	5.345
276.5	5.205
277.0	5.068
277.5	4.927
278.0	4.784
278.5	4.637
279.0	4.493
279.5	4.352
280.0	4.215
280.5	4.083
281.0	3.948
281.5	3.809
282.0	3.672
282.5	3.537
283.0	3.406
283.5	3.277
284.0	3.155
284.5	3.040
285.0	2.931
285.5	2.823
286.0	2.715
286.5	2.603
287.0	2.485
287.5	2.368
288.0	2.257
288.5	2.152
289.0	2.051
289.5	1.950
290.0	1.850
290.5	1.747
291.0	1.641
291.5	1.535
292.0	1.434
292.5	1.339
293.0	1.248
293.5	1.160
294.0	1.071
294.5	0.987
295.0	0.907
295.5	0.834
296.0	0.769
296.5	0.709
297.0	0.658
297.5	0.611
298.0	0.568
298.5	0.526
299.0	0.484
299.5	0.446
300.0	0.409
300.5	0.377
301.0	0.345
301.5	0.315
302.0	0.283
302.5	0.254
303.0	0.228
303.5	0.204
304.0	0.184
304.5	0.167
305.0	0.150
305.5	0.136
306.0	0.122
306.5	0.109
307.0	0.100
307.5	0.091
308.0	0.085
308.5	0.078
309.0	0.072
309.5	0.068
310.0	0.064
310.5	0.059
311.0	0.057
311.5	0.054
312.0	0.050
312.5	0.048
313.0	0.045
313.5	0.043
314.0	0.042
314.5	0.038
315.0	0.034
315.5	0.030
316.0	0.029
316.5	0.027
317.0	0.022
317.5	0.020
318.0	0.017
318.5	0.015
319.0	0.015
319.5	0.013
320.0	0.013
320.5	0.013
321.0	0.014
321.5	0.012
322.0	0.013
322.5	0.015
323.0	0.018
323.5	0.018
324.0	0.018
324.5	0.018
325.0	0.017
325.5	0.019
326.0	0.019
326.5	0.018
327.0	0.019
327.5	0.019
328.0	0.019
328.5	0.016
329.0	0.014
329.5	0.015
330.0	0.018
330.5	0.017
331.0	0.014
331.5	0.015
332.0	0.015
332.5	0.014
333.0	0.013
333.5	0.011
334.0	0.012
334.5	0.013
335.0	0.012
335.5	0.010
336.0	0.009
336.5	0.008
337.0	0.006
337.5	0.003
338.0	0.002
338.5	0.001
339.0	-0.001
339.5	-0.001
340.0	0.000
340.5	-0.001
341.0	0.000
341.5	0.001
342.0	0.001
342.5	0.003
343.0	0.004
343.5	0.006
344.0	0.008
344.5	0.010
345.0	0.011
345.5	0.013
346.0	0.015
346.5	0.016
347.0	0.017
347.5	0.017
348.0	0.020
348.5	0.022
349.0	0.021
349.5	0.020
350.0	0.020


Sample 18
3/25/2021 5:51 PM
Wavelength (nm)	10mm Absorbance
//WLCalib: Shift 	0.14000	
//WLCalib: 261S 	0.08000	
//WLCalib: 362S 	0.02000	
//WLCalib: 484S 	-0.04000	
//WLCalib: 529S 	0.04000	
//WLCalib: 823S 	-0.28000	
//QSpecEnd: 
220.0	7.112
220.5	6.902
221.0	6.696
221.5	6.499
222.0	6.305
222.5	6.111
223.0	5.926
223.5	5.746
224.0	5.565
224.5	5.387
225.0	5.236
225.5	5.121
226.0	5.036
226.5	4.969
227.0	4.915
227.5	4.872
228.0	4.832
228.5	4.800
229.0	4.769
229.5	4.743
230.0	4.719
230.5	4.698
231.0	4.679
231.5	4.660
232.0	4.642
232.5	4.620
233.0	4.597
233.5	4.577
234.0	4.568
234.5	4.565
235.0	4.571
235.5	4.589
236.0	4.616
236.5	4.656
237.0	4.705
237.5	4.766
238.0	4.847
238.5	4.945
239.0	5.056
239.5	5.170
240.0	5.274
240.5	5.366
241.0	5.451
241.5	5.530
242.0	5.612
242.5	5.704
243.0	5.814
243.5	5.945
244.0	6.078
244.5	6.195
245.0	6.297
245.5	6.391
246.0	6.483
246.5	6.577
247.0	6.669
247.5	6.756
248.0	6.840
248.5	6.921
249.0	6.999
249.5	7.070
250.0	7.137
250.5	7.206
251.0	7.281
251.5	7.367
252.0	7.457
252.5	7.551
253.0	7.640
253.5	7.721
254.0	7.794
254.5	7.855
255.0	7.910
255.5	7.962
256.0	8.004
256.5	8.048
257.0	8.084
257.5	8.107
258.0	8.117
258.5	8.118
259.0	8.114
259.5	8.102
260.0	8.088
260.5	8.073
261.0	8.051
261.5	8.024
262.0	7.994
262.5	7.955
263.0	7.906
263.5	7.843
264.0	7.759
264.5	7.656
265.0	7.539
265.5	7.423
266.0	7.309
266.5	7.201
267.0	7.096
267.5	6.988
268.0	6.869
268.5	6.744
269.0	6.629
269.5	6.519
270.0	6.415
270.5	6.308
271.0	6.203
271.5	6.100
272.0	5.992
272.5	5.883
273.0	5.773
273.5	5.663
274.0	5.556
274.5	5.450
275.0	5.341
275.5	5.227
276.0	5.103
276.5	4.972
277.0	4.842
277.5	4.705
278.0	4.568
278.5	4.429
279.0	4.289
279.5	4.155
280.0	4.027
280.5	3.902
281.0	3.776
281.5	3.645
282.0	3.513
282.5	3.387
283.0	3.263
283.5	3.141
284.0	3.024
284.5	2.915
285.0	2.812
285.5	2.709
286.0	2.607
286.5	2.503
287.0	2.393
287.5	2.282
288.0	2.178
288.5	2.078
289.0	1.982
289.5	1.888
290.0	1.795
290.5	1.698
291.0	1.598
291.5	1.496
292.0	1.399
292.5	1.309
293.0	1.222
293.5	1.136
294.0	1.050
294.5	0.969
295.0	0.892
295.5	0.820
296.0	0.757
296.5	0.698
297.0	0.647
297.5	0.601
298.0	0.558
298.5	0.516
299.0	0.476
299.5	0.437
300.0	0.402
300.5	0.370
301.0	0.339
301.5	0.310
302.0	0.279
302.5	0.250
303.0	0.224
303.5	0.201
304.0	0.183
304.5	0.167
305.0	0.151
305.5	0.136
306.0	0.122
306.5	0.109
307.0	0.100
307.5	0.092
308.0	0.085
308.5	0.079
309.0	0.072
309.5	0.068
310.0	0.065
310.5	0.060
311.0	0.058
311.5	0.054
312.0	0.051
312.5	0.048
313.0	0.047
313.5	0.044
314.0	0.043
314.5	0.038
315.0	0.035
315.5	0.032
316.0	0.031
316.5	0.028
317.0	0.022
317.5	0.019
318.0	0.017
318.5	0.015
319.0	0.011
319.5	0.009
320.0	0.008
320.5	0.006
321.0	0.007
321.5	0.006
322.0	0.009
322.5	0.010
323.0	0.011
323.5	0.011
324.0	0.011
324.5	0.011
325.0	0.010
325.5	0.011
326.0	0.010
326.5	0.010
327.0	0.013
327.5	0.013
328.0	0.013
328.5	0.012
329.0	0.012
329.5	0.012
330.0	0.014
330.5	0.013
331.0	0.012
331.5	0.012
332.0	0.012
332.5	0.012
333.0	0.011
333.5	0.010
334.0	0.012
334.5	0.012
335.0	0.010
335.5	0.009
336.0	0.008
336.5	0.004
337.0	0.002
337.5	0.000
338.0	0.000
338.5	-0.001
339.0	-0.001
339.5	-0.001
340.0	0.000
340.5	-0.001
341.0	0.000
341.5	0.000
342.0	0.000
342.5	0.002
343.0	0.005
343.5	0.007
344.0	0.011
344.5	0.012
345.0	0.013
345.5	0.014
346.0	0.014
346.5	0.016
347.0	0.015
347.5	0.015
348.0	0.019
348.5	0.022
349.0	0.021
349.5	0.020
350.0	0.019


Sample 19
3/25/2021 5:51 PM
Wavelength (nm)	10mm Absorbance
//WLCalib: Shift 	0.14000	
//WLCalib: 261S 	0.08000	
//WLCalib: 362S 	0.02000	
//WLCalib: 484S 	-0.04000	
//WLCalib: 529S 	0.04000	
//WLCalib: 823S 	-0.28000	
//QSpecEnd: 
220.0	4.828
220.5	4.689
221.0	4.547
221.5	4.468
222.0	4.421
222.5	4.319
223.0	4.247
223.5	4.132
224.0	4.048
224.5	3.971
225.0	3.914
225.5	3.888
226.0	3.839
226.5	3.783
227.0	3.719
227.5	3.672
228.0	3.627
228.5	3.594
229.0	3.552
229.5	3.513
230.0	3.494
230.5	3.467
231.0	3.448
231.5	3.424
232.0	3.383
232.5	3.318
233.0	3.238
233.5	3.173
234.0	3.118
234.5	3.088
235.0	3.054
235.5	3.056
236.0	3.046
236.5	3.053
237.0	3.059
237.5	3.068
238.0	3.069
238.5	3.098
239.0	3.112
239.5	3.135
240.0	3.162
240.5	3.174
241.0	3.170
241.5	3.197
242.0	3.239
242.5	3.263
243.0	3.310
243.5	3.367
244.0	3.457
244.5	3.498
245.0	3.508
245.5	3.515
246.0	3.506
246.5	3.520
247.0	3.535
247.5	3.566
248.0	3.586
248.5	3.611
249.0	3.632
249.5	3.633
250.0	3.626
250.5	3.601
251.0	3.578
251.5	3.519
252.0	3.487
252.5	3.471
253.0	3.480
253.5	3.528
254.0	3.551
254.5	3.559
255.0	3.562
255.5	3.577
256.0	3.598
256.5	3.593
257.0	3.594
257.5	3.613
258.0	3.623
258.5	3.607
259.0	3.599
259.5	3.604
260.0	3.603
260.5	3.584
261.0	3.560
261.5	3.552
262.0	3.571
262.5	3.579
263.0	3.564
263.5	3.542
264.0	3.504
264.5	3.448
265.0	3.404
265.5	3.385
266.0	3.378
266.5	3.357
267.0	3.307
267.5	3.261
268.0	3.206
268.5	3.123
269.0	3.051
269.5	2.954
270.0	2.865
270.5	2.788
271.0	2.722
271.5	2.694
272.0	2.655
272.5	2.609
273.0	2.548
273.5	2.494
274.0	2.431
274.5	2.378
275.0	2.319
275.5	2.260
276.0	2.199
276.5	2.111
277.0	2.032
277.5	1.969
278.0	1.909
278.5	1.839
279.0	1.756
279.5	1.673
280.0	1.604
280.5	1.543
281.0	1.478
281.5	1.424
282.0	1.372
282.5	1.338
283.0	1.286
283.5	1.270
284.0	1.270
284.5	1.267
285.0	1.252
285.5	1.242
286.0	1.235
286.5	1.214
287.0	1.229
287.5	1.206
288.0	1.178
288.5	1.141
289.0	1.118
289.5	1.088
290.0	1.048
290.5	1.028
291.0	0.992
291.5	0.945
292.0	0.877
292.5	0.826
293.0	0.787
293.5	0.751
294.0	0.693
294.5	0.626
295.0	0.583
295.5	0.547
296.0	0.514
296.5	0.476
297.0	0.437
297.5	0.409
298.0	0.374
298.5	0.344
299.0	0.316
299.5	0.284
300.0	0.262
300.5	0.226
301.0	0.194
301.5	0.171
302.0	0.171
302.5	0.151
303.0	0.141
303.5	0.123
304.0	0.123
304.5	0.116
305.0	0.106
305.5	0.108
306.0	0.104
306.5	0.100
307.0	0.098
307.5	0.094
308.0	0.101
308.5	0.097
309.0	0.082
309.5	0.053
310.0	0.047
310.5	0.029
311.0	0.032
311.5	0.006
312.0	-0.006
312.5	-0.016
313.0	-0.026
313.5	-0.034
314.0	-0.052
314.5	-0.047
315.0	-0.052
315.5	-0.053
316.0	-0.060
316.5	-0.058
317.0	-0.039
317.5	-0.048
318.0	-0.069
318.5	-0.069
319.0	-0.060
319.5	-0.057
320.0	-0.051
320.5	-0.054
321.0	-0.072
321.5	-0.074
322.0	-0.096
322.5	-0.090
323.0	-0.111
323.5	-0.113
324.0	-0.115
324.5	-0.095
325.0	-0.099
325.5	-0.064
326.0	-0.071
326.5	-0.087
327.0	-0.071
327.5	-0.059
328.0	-0.029
328.5	-0.021
329.0	-0.020
329.5	-0.023
330.0	-0.025
330.5	-0.005
331.0	0.012
331.5	-0.005
332.0	0.000
332.5	-0.008
333.0	-0.030
333.5	-0.010
334.0	0.015
334.5	0.015
335.0	0.018
335.5	-0.006
336.0	-0.016
336.5	0.013
337.0	0.037
337.5	0.033
338.0	0.035
338.5	0.021
339.0	0.035
339.5	0.019
340.0	0.000
340.5	0.015
341.0	-0.007
341.5	-0.034
342.0	-0.054
342.5	-0.055
343.0	-0.084
343.5	-0.099
344.0	-0.150
344.5	-0.180
345.0	-0.195
345.5	-0.224
346.0	-0.244
346.5	-0.267
347.0	-0.279
347.5	-0.269
348.0	-0.306
348.5	-0.334
349.0	-0.349
349.5	-0.361
350.0	-0.401


Sample 20
3/25/2021 5:51 PM
Wavelength (nm)	10mm Absorbance
//WLCalib: Shift 	0.14000	
//WLCalib: 261S 	0.08000	
//WLCalib: 362S 	0.02000	
//WLCalib: 484S 	-0.04000	
//WLCalib: 529S 	0.04000	
//WLCalib: 823S 	-0.28000	
//QSpecEnd: 
220.0	7.740
220.5	7.522
221.0	7.313
221.5	7.106
222.0	6.901
222.5	6.698
223.0	6.491
223.5	6.288
224.0	6.080
224.5	5.867
225.0	5.682
225.5	5.539
226.0	5.430
226.5	5.346
227.0	5.277
227.5	5.216
228.0	5.164
228.5	5.116
229.0	5.073
229.5	5.033
230.0	4.995
230.5	4.958
231.0	4.920
231.5	4.885
232.0	4.848
232.5	4.801
233.0	4.749
233.5	4.699
234.0	4.656
234.5	4.620
235.0	4.593
235.5	4.576
236.0	4.572
236.5	4.583
237.0	4.603
237.5	4.632
238.0	4.680
238.5	4.748
239.0	4.823
239.5	4.904
240.0	4.981
240.5	5.051
241.0	5.116
241.5	5.180
242.0	5.248
242.5	5.326
243.0	5.420
243.5	5.533
244.0	5.649
244.5	5.750
245.0	5.840
245.5	5.923
246.0	6.003
246.5	6.085
247.0	6.166
247.5	6.245
248.0	6.319
248.5	6.390
249.0	6.456
249.5	6.519
250.0	6.578
250.5	6.638
251.0	6.705
251.5	6.779
252.0	6.861
252.5	6.943
253.0	7.022
253.5	7.096
254.0	7.162
254.5	7.218
255.0	7.263
255.5	7.305
256.0	7.345
256.5	7.385
257.0	7.415
257.5	7.436
258.0	7.446
258.5	7.451
259.0	7.447
259.5	7.436
260.0	7.422
260.5	7.404
261.0	7.384
261.5	7.359
262.0	7.330
262.5	7.295
263.0	7.250
263.5	7.188
264.0	7.116
264.5	7.024
265.0	6.918
265.5	6.808
266.0	6.703
266.5	6.603
267.0	6.507
267.5	6.409
268.0	6.296
268.5	6.182
269.0	6.077
269.5	5.975
270.0	5.879
270.5	5.783
271.0	5.688
271.5	5.592
272.0	5.494
272.5	5.391
273.0	5.291
273.5	5.190
274.0	5.091
274.5	4.991
275.0	4.892
275.5	4.788
276.0	4.673
276.5	4.551
277.0	4.432
277.5	4.309
278.0	4.183
278.5	4.056
279.0	3.931
279.5	3.807
280.0	3.689
280.5	3.574
281.0	3.459
281.5	3.339
282.0	3.220
282.5	3.102
283.0	2.989
283.5	2.876
284.0	2.769
284.5	2.669
285.0	2.573
285.5	2.479
286.0	2.384
286.5	2.287
287.0	2.186
287.5	2.085
288.0	1.988
288.5	1.898
289.0	1.812
289.5	1.725
290.0	1.640
290.5	1.550
291.0	1.460
291.5	1.369
292.0	1.282
292.5	1.201
293.0	1.121
293.5	1.045
294.0	0.968
294.5	0.892
295.0	0.823
295.5	0.757
296.0	0.698
296.5	0.644
297.0	0.598
297.5	0.555
298.0	0.517
298.5	0.478
299.0	0.441
299.5	0.404
300.0	0.371
300.5	0.342
301.0	0.314
301.5	0.285
302.0	0.257
302.5	0.229
303.0	0.205
303.5	0.184
304.0	0.165
304.5	0.150
305.0	0.134
305.5	0.120
306.0	0.108
306.5	0.096
307.0	0.088
307.5	0.080
308.0	0.073
308.5	0.068
309.0	0.062
309.5	0.058
310.0	0.055
310.5	0.052
311.0	0.049
311.5	0.047
312.0	0.044
312.5	0.042
313.0	0.041
313.5	0.039
314.0	0.038
314.5	0.033
315.0	0.030
315.5	0.028
316.0	0.026
316.5	0.022
317.0	0.017
317.5	0.014
318.0	0.010
318.5	0.009
319.0	0.007
319.5	0.006
320.0	0.007
320.5	0.005
321.0	0.006
321.5	0.006
322.0	0.009
322.5	0.012
323.0	0.013
323.5	0.013
324.0	0.015
324.5	0.015
325.0	0.015
325.5	0.016
326.0	0.016
326.5	0.017
327.0	0.016
327.5	0.016
328.0	0.015
328.5	0.013
329.0	0.011
329.5	0.012
330.0	0.011
330.5	0.010
331.0	0.010
331.5	0.010
332.0	0.009
332.5	0.009
333.0	0.008
333.5	0.007
334.0	0.007
334.5	0.008
335.0	0.007
335.5	0.007
336.0	0.007
336.5	0.005
337.0	0.003
337.5	0.002
338.0	0.002
338.5	0.001
339.0	0.000
339.5	0.000
340.0	0.000
340.5	0.000
341.0	0.002
341.5	0.002
342.0	0.002
342.5	0.003
343.0	0.005
343.5	0.006
344.0	0.009
344.5	0.010
345.0	0.011
345.5	0.012
346.0	0.013
346.5	0.015
347.0	0.017
347.5	0.017
348.0	0.020
348.5	0.021
349.0	0.020
349.5	0.020
350.0	0.020


Sample 21
3/25/2021 5:52 PM
Wavelength (nm)	10mm Absorbance
//WLCalib: Shift 	0.14000	
//WLCalib: 261S 	0.08000	
//WLCalib: 362S 	0.02000	
//WLCalib: 484S 	-0.04000	
//WLCalib: 529S 	0.04000	
//WLCalib: 823S 	-0.28000	
//QSpecEnd: 
220.0	-0.192
220.5	-0.189
221.0	-0.187
221.5	-0.185
222.0	-0.180
222.5	-0.181
223.0	-0.180
223.5	-0.177
224.0	-0.175
224.5	-0.170
225.0	-0.167
225.5	-0.161
226.0	-0.158
226.5	-0.156
227.0	-0.153
227.5	-0.151
228.0	-0.150
228.5	-0.148
229.0	-0.149
229.5	-0.148
230.0	-0.147
230.5	-0.146
231.0	-0.145
231.5	-0.144
232.0	-0.143
232.5	-0.143
233.0	-0.143
233.5	-0.142
234.0	-0.140
234.5	-0.140
235.0	-0.140
235.5	-0.139
236.0	-0.139
236.5	-0.136
237.0	-0.136
237.5	-0.136
238.0	-0.134
238.5	-0.133
239.0	-0.132
239.5	-0.130
240.0	-0.127
240.5	-0.123
241.0	-0.123
241.5	-0.124
242.0	-0.122
242.5	-0.121
243.0	-0.122
243.5	-0.120
244.0	-0.118
244.5	-0.115
245.0	-0.114
245.5	-0.112
246.0	-0.110
246.5	-0.110
247.0	-0.109
247.5	-0.109
248.0	-0.109
248.5	-0.108
249.0	-0.107
249.5	-0.107
250.0	-0.106
250.5	-0.105
251.0	-0.105
251.5	-0.104
252.0	-0.106
252.5	-0.104
253.0	-0.106
253.5	-0.107
254.0	-0.106
254.5	-0.107
255.0	-0.105
255.5	-0.105
256.0	-0.104
256.5	-0.103
257.0	-0.102
257.5	-0.100
258.0	-0.100
258.5	-0.099
259.0	-0.098
259.5	-0.099
260.0	-0.099
260.5	-0.099
261.0	-0.098
261.5	-0.098
262.0	-0.097
262.5	-0.097
263.0	-0.096
263.5	-0.097
264.0	-0.097
264.5	-0.097
265.0	-0.097
265.5	-0.096
266.0	-0.096
266.5	-0.095
267.0	-0.094
267.5	-0.093
268.0	-0.092
268.5	-0.092
269.0	-0.090
269.5	-0.089
270.0	-0.086
270.5	-0.085
271.0	-0.083
271.5	-0.082
272.0	-0.082
272.5	-0.081
273.0	-0.082
273.5	-0.080
274.0	-0.078
274.5	-0.078
275.0	-0.076
275.5	-0.076
276.0	-0.075
276.5	-0.074
277.0	-0.072
277.5	-0.072
278.0	-0.072
278.5	-0.073
279.0	-0.072
279.5	-0.070
280.0	-0.067
280.5	-0.066
281.0	-0.063
281.5	-0.061
282.0	-0.059
282.5	-0.056
283.0	-0.054
283.5	-0.054
284.0	-0.054
284.5	-0.055
285.0	-0.056
285.5	-0.055
286.0	-0.055
286.5	-0.055
287.0	-0.054
287.5	-0.056
288.0	-0.057
288.5	-0.057
289.0	-0.058
289.5	-0.059
290.0	-0.060
290.5	-0.061
291.0	-0.058
291.5	-0.056
292.0	-0.054
292.5	-0.052
293.0	-0.053
293.5	-0.051
294.0	-0.050
294.5	-0.050
295.0	-0.050
295.5	-0.049
296.0	-0.049
296.5	-0.050
297.0	-0.050
297.5	-0.049
298.0	-0.049
298.5	-0.049
299.0	-0.049
299.5	-0.049
300.0	-0.049
300.5	-0.048
301.0	-0.047
301.5	-0.046
302.0	-0.046
302.5	-0.044
303.0	-0.043
303.5	-0.041
304.0	-0.040
304.5	-0.038
305.0	-0.038
305.5	-0.036
306.0	-0.034
306.5	-0.034
307.0	-0.032
307.5	-0.030
308.0	-0.029
308.5	-0.027
309.0	-0.026
309.5	-0.024
310.0	-0.022
310.5	-0.021
311.0	-0.022
311.5	-0.021
312.0	-0.020
312.5	-0.019
313.0	-0.018
313.5	-0.018
314.0	-0.018
314.5	-0.019
315.0	-0.020
315.5	-0.019
316.0	-0.020
316.5	-0.020
317.0	-0.023
317.5	-0.024
318.0	-0.026
318.5	-0.025
319.0	-0.025
319.5	-0.024
320.0	-0.022
320.5	-0.021
321.0	-0.019
321.5	-0.020
322.0	-0.017
322.5	-0.015
323.0	-0.013
323.5	-0.012
324.0	-0.012
324.5	-0.011
325.0	-0.011
325.5	-0.008
326.0	-0.009
326.5	-0.009
327.0	-0.008
327.5	-0.009
328.0	-0.010
328.5	-0.010
329.0	-0.008
329.5	-0.005
330.0	-0.002
330.5	-0.002
331.0	-0.003
331.5	-0.001
332.0	0.000
332.5	0.000
333.0	-0.001
333.5	-0.002
334.0	0.001
334.5	0.000
335.0	0.001
335.5	0.001
336.0	0.000
336.5	-0.003
337.0	-0.004
337.5	-0.007
338.0	-0.006
338.5	-0.004
339.0	-0.004
339.5	-0.002
340.0	0.000
340.5	0.001
341.0	0.003
341.5	0.004
342.0	0.005
342.5	0.007
343.0	0.009
343.5	0.011
344.0	0.014
344.5	0.017
345.0	0.019
345.5	0.021
346.0	0.021
346.5	0.023
347.0	0.024
347.5	0.024
348.0	0.028
348.5	0.030
349.0	0.029
349.5	0.028
350.0	0.028


Sample 22
3/25/2021 5:53 PM
Wavelength (nm)	10mm Absorbance
//WLCalib: Shift 	0.14000	
//WLCalib: 261S 	0.08000	
//WLCalib: 362S 	0.02000	
//WLCalib: 484S 	-0.04000	
//WLCalib: 529S 	0.04000	
//WLCalib: 823S 	-0.28000	
//QSpecEnd: 
220.0	6.267
220.5	6.076
221.0	5.888
221.5	5.709
222.0	5.539
222.5	5.370
223.0	5.216
223.5	5.067
224.0	4.922
224.5	4.788
225.0	4.676
225.5	4.593
226.0	4.535
226.5	4.490
227.0	4.457
227.5	4.428
228.0	4.404
228.5	4.384
229.0	4.368
229.5	4.354
230.0	4.345
230.5	4.338
231.0	4.332
231.5	4.330
232.0	4.330
232.5	4.329
233.0	4.332
233.5	4.339
234.0	4.355
234.5	4.378
235.0	4.411
235.5	4.455
236.0	4.507
236.5	4.568
237.0	4.637
237.5	4.719
238.0	4.817
238.5	4.937
239.0	5.068
239.5	5.197
240.0	5.315
240.5	5.419
241.0	5.514
241.5	5.603
242.0	5.695
242.5	5.796
243.0	5.914
243.5	6.055
244.0	6.194
244.5	6.316
245.0	6.423
245.5	6.523
246.0	6.620
246.5	6.718
247.0	6.815
247.5	6.908
248.0	6.994
248.5	7.078
249.0	7.157
249.5	7.228
250.0	7.296
250.5	7.366
251.0	7.441
251.5	7.529
252.0	7.624
252.5	7.717
253.0	7.808
253.5	7.893
254.0	7.969
254.5	8.033
255.0	8.088
255.5	8.137
256.0	8.180
256.5	8.222
257.0	8.256
257.5	8.279
258.0	8.291
258.5	8.293
259.0	8.287
259.5	8.274
260.0	8.260
260.5	8.240
261.0	8.216
261.5	8.188
262.0	8.157
262.5	8.115
263.0	8.066
263.5	8.000
264.0	7.917
264.5	7.815
265.0	7.695
265.5	7.573
266.0	7.460
266.5	7.352
267.0	7.246
267.5	7.136
268.0	7.013
268.5	6.888
269.0	6.769
269.5	6.658
270.0	6.553
270.5	6.447
271.0	6.343
271.5	6.237
272.0	6.130
272.5	6.019
273.0	5.907
273.5	5.793
274.0	5.683
274.5	5.571
275.0	5.462
275.5	5.346
276.0	5.218
276.5	5.084
277.0	4.951
277.5	4.811
278.0	4.668
278.5	4.526
279.0	4.384
279.5	4.244
280.0	4.112
280.5	3.984
281.0	3.854
281.5	3.720
282.0	3.587
282.5	3.457
283.0	3.329
283.5	3.203
284.0	3.083
284.5	2.971
285.0	2.865
285.5	2.762
286.0	2.656
286.5	2.548
287.0	2.435
287.5	2.321
288.0	2.211
288.5	2.110
289.0	2.012
289.5	1.914
290.0	1.817
290.5	1.717
291.0	1.614
291.5	1.510
292.0	1.412
292.5	1.319
293.0	1.229
293.5	1.142
294.0	1.056
294.5	0.972
295.0	0.893
295.5	0.820
296.0	0.755
296.5	0.696
297.0	0.646
297.5	0.600
298.0	0.558
298.5	0.516
299.0	0.475
299.5	0.436
300.0	0.400
300.5	0.369
301.0	0.337
301.5	0.307
302.0	0.277
302.5	0.250
303.0	0.224
303.5	0.202
304.0	0.182
304.5	0.165
305.0	0.148
305.5	0.133
306.0	0.119
306.5	0.107
307.0	0.097
307.5	0.088
308.0	0.081
308.5	0.075
309.0	0.070
309.5	0.065
310.0	0.061
310.5	0.056
311.0	0.053
311.5	0.050
312.0	0.047
312.5	0.046
313.0	0.043
313.5	0.040
314.0	0.039
314.5	0.035
315.0	0.033
315.5	0.030
316.0	0.026
316.5	0.022
317.0	0.017
317.5	0.015
318.0	0.013
318.5	0.011
319.0	0.009
319.5	0.008
320.0	0.007
320.5	0.006
321.0	0.009
321.5	0.009
322.0	0.011
322.5	0.013
323.0	0.017
323.5	0.019
324.0	0.020
324.5	0.019
325.0	0.017
325.5	0.018
326.0	0.018
326.5	0.019
327.0	0.019
327.5	0.019
328.0	0.018
328.5	0.016
329.0	0.016
329.5	0.017
330.0	0.017
330.5	0.016
331.0	0.013
331.5	0.013
332.0	0.013
332.5	0.014
333.0	0.014
333.5	0.012
334.0	0.012
334.5	0.013
335.0	0.013
335.5	0.012
336.0	0.012
336.5	0.008
337.0	0.004
337.5	0.002
338.0	0.001
338.5	-0.001
339.0	-0.001
339.5	0.000
340.0	0.000
340.5	-0.002
341.0	0.000
341.5	0.000
342.0	0.001
342.5	0.002
343.0	0.004
343.5	0.005
344.0	0.007
344.5	0.009
345.0	0.010
345.5	0.012
346.0	0.014
346.5	0.015
347.0	0.016
347.5	0.017
348.0	0.020
348.5	0.022
349.0	0.021
349.5	0.019
350.0	0.018


Sample 23
3/25/2021 5:53 PM
Wavelength (nm)	10mm Absorbance
//WLCalib: Shift 	0.14000	
//WLCalib: 261S 	0.08000	
//WLCalib: 362S 	0.02000	
//WLCalib: 484S 	-0.04000	
//WLCalib: 529S 	0.04000	
//WLCalib: 823S 	-0.28000	
//QSpecEnd: 
220.0	6.735
220.5	6.534
221.0	6.336
221.5	6.143
222.0	5.956
222.5	5.774
223.0	5.592
223.5	5.412
224.0	5.229
224.5	5.043
225.0	4.878
225.5	4.741
226.0	4.640
226.5	4.568
227.0	4.514
227.5	4.471
228.0	4.433
228.5	4.402
229.0	4.374
229.5	4.348
230.0	4.324
230.5	4.301
231.0	4.280
231.5	4.261
232.0	4.243
232.5	4.222
233.0	4.208
233.5	4.198
234.0	4.193
234.5	4.191
235.0	4.196
235.5	4.210
236.0	4.231
236.5	4.263
237.0	4.305
237.5	4.359
238.0	4.426
238.5	4.514
239.0	4.610
239.5	4.708
240.0	4.798
240.5	4.883
241.0	4.962
241.5	5.039
242.0	5.116
242.5	5.200
243.0	5.301
243.5	5.419
244.0	5.534
244.5	5.635
245.0	5.728
245.5	5.817
246.0	5.905
246.5	5.994
247.0	6.081
247.5	6.166
248.0	6.244
248.5	6.317
249.0	6.388
249.5	6.453
250.0	6.516
250.5	6.582
251.0	6.657
251.5	6.746
252.0	6.846
252.5	6.941
253.0	7.028
253.5	7.106
254.0	7.176
254.5	7.236
255.0	7.287
255.5	7.334
256.0	7.377
256.5	7.416
257.0	7.449
257.5	7.473
258.0	7.484
258.5	7.486
259.0	7.484
259.5	7.473
260.0	7.458
260.5	7.442
261.0	7.426
261.5	7.400
262.0	7.371
262.5	7.335
263.0	7.291
263.5	7.233
264.0	7.160
264.5	7.070
265.0	6.964
265.5	6.852
266.0	6.744
266.5	6.642
267.0	6.544
267.5	6.444
268.0	6.331
268.5	6.212
269.0	6.103
269.5	6.001
270.0	5.905
270.5	5.808
271.0	5.711
271.5	5.614
272.0	5.515
272.5	5.414
273.0	5.314
273.5	5.215
274.0	5.115
274.5	5.018
275.0	4.918
275.5	4.816
276.0	4.701
276.5	4.581
277.0	4.461
277.5	4.338
278.0	4.209
278.5	4.080
279.0	3.953
279.5	3.829
280.0	3.711
280.5	3.594
281.0	3.476
281.5	3.356
282.0	3.232
282.5	3.114
283.0	2.997
283.5	2.883
284.0	2.774
284.5	2.673
285.0	2.575
285.5	2.480
286.0	2.386
286.5	2.288
287.0	2.185
287.5	2.079
288.0	1.980
288.5	1.887
289.0	1.799
289.5	1.712
290.0	1.626
290.5	1.537
291.0	1.444
291.5	1.350
292.0	1.260
292.5	1.177
293.0	1.096
293.5	1.015
294.0	0.934
294.5	0.856
295.0	0.782
295.5	0.714
296.0	0.656
296.5	0.600
297.0	0.553
297.5	0.509
298.0	0.468
298.5	0.429
299.0	0.390
299.5	0.354
300.0	0.320
300.5	0.291
301.0	0.263
301.5	0.237
302.0	0.211
302.5	0.188
303.0	0.166
303.5	0.146
304.0	0.128
304.5	0.113
305.0	0.099
305.5	0.086
306.0	0.075
306.5	0.065
307.0	0.058
307.5	0.051
308.0	0.046
308.5	0.040
309.0	0.034
309.5	0.031
310.0	0.027
310.5	0.023
311.0	0.022
311.5	0.020
312.0	0.017
312.5	0.018
313.0	0.018
313.5	0.017
314.0	0.017
314.5	0.015
315.0	0.012
315.5	0.011
316.0	0.010
316.5	0.010
317.0	0.008
317.5	0.007
318.0	0.006
318.5	0.006
319.0	0.007
319.5	0.007
320.0	0.007
320.5	0.005
321.0	0.007
321.5	0.007
322.0	0.009
322.5	0.011
323.0	0.015
323.5	0.015
324.0	0.015
324.5	0.015
325.0	0.014
325.5	0.015
326.0	0.014
326.5	0.014
327.0	0.013
327.5	0.013
328.0	0.012
328.5	0.010
329.0	0.010
329.5	0.012
330.0	0.013
330.5	0.011
331.0	0.009
331.5	0.011
332.0	0.012
332.5	0.012
333.0	0.011
333.5	0.009
334.0	0.010
334.5	0.012
335.0	0.010
335.5	0.010
336.0	0.009
336.5	0.006
337.0	0.003
337.5	0.001
338.0	0.001
338.5	0.001
339.0	0.000
339.5	0.000
340.0	0.000
340.5	-0.002
341.0	0.001
341.5	0.002
342.0	0.002
342.5	0.005
343.0	0.008
343.5	0.010
344.0	0.012
344.5	0.014
345.0	0.017
345.5	0.019
346.0	0.020
346.5	0.022
347.0	0.024
347.5	0.026
348.0	0.030
348.5	0.032
349.0	0.032
349.5	0.031
350.0	0.032


Sample 24
3/25/2021 5:53 PM
Wavelength (nm)	10mm Absorbance
//WLCalib: Shift 	0.14000	
//WLCalib: 261S 	0.08000	
//WLCalib: 362S 	0.02000	
//WLCalib: 484S 	-0.04000	
//WLCalib: 529S 	0.04000	
//WLCalib: 823S 	-0.28000	
//QSpecEnd: 
220.0	5.089
220.5	4.934
221.0	4.789
221.5	4.645
222.0	4.504
222.5	4.367
223.0	4.239
223.5	4.112
224.0	3.986
224.5	3.861
225.0	3.756
225.5	3.679
226.0	3.621
226.5	3.577
227.0	3.543
227.5	3.514
228.0	3.488
228.5	3.467
229.0	3.447
229.5	3.429
230.0	3.414
230.5	3.401
231.0	3.389
231.5	3.379
232.0	3.371
232.5	3.359
233.0	3.346
233.5	3.336
234.0	3.334
234.5	3.335
235.0	3.345
235.5	3.363
236.0	3.387
236.5	3.422
237.0	3.463
237.5	3.514
238.0	3.575
238.5	3.654
239.0	3.741
239.5	3.828
240.0	3.907
240.5	3.980
241.0	4.044
241.5	4.105
242.0	4.168
242.5	4.238
243.0	4.321
243.5	4.421
244.0	4.522
244.5	4.612
245.0	4.688
245.5	4.760
246.0	4.829
246.5	4.897
247.0	4.965
247.5	5.031
248.0	5.092
248.5	5.152
249.0	5.208
249.5	5.260
250.0	5.309
250.5	5.359
251.0	5.414
251.5	5.475
252.0	5.540
252.5	5.607
253.0	5.673
253.5	5.732
254.0	5.785
254.5	5.832
255.0	5.871
255.5	5.907
256.0	5.939
256.5	5.972
257.0	5.996
257.5	6.013
258.0	6.021
258.5	6.023
259.0	6.022
259.5	6.013
260.0	6.002
260.5	5.986
261.0	5.970
261.5	5.949
262.0	5.925
262.5	5.897
263.0	5.860
263.5	5.816
264.0	5.755
264.5	5.682
265.0	5.595
265.5	5.508
266.0	5.423
266.5	5.343
267.0	5.265
267.5	5.185
268.0	5.098
268.5	5.008
269.0	4.922
269.5	4.842
270.0	4.765
270.5	4.685
271.0	4.608
271.5	4.531
272.0	4.454
272.5	4.376
273.0	4.296
273.5	4.216
274.0	4.135
274.5	4.058
275.0	3.979
275.5	3.895
276.0	3.801
276.5	3.704
277.0	3.606
277.5	3.506
278.0	3.403
278.5	3.299
279.0	3.195
279.5	3.093
280.0	2.996
280.5	2.902
281.0	2.808
281.5	2.711
282.0	2.613
282.5	2.517
283.0	2.424
283.5	2.332
284.0	2.245
284.5	2.165
285.0	2.087
285.5	2.011
286.0	1.935
286.5	1.857
287.0	1.776
287.5	1.693
288.0	1.614
288.5	1.540
289.0	1.469
289.5	1.398
290.0	1.329
290.5	1.257
291.0	1.183
291.5	1.108
292.0	1.038
292.5	0.972
293.0	0.907
293.5	0.843
294.0	0.782
294.5	0.720
295.0	0.664
295.5	0.611
296.0	0.564
296.5	0.520
297.0	0.482
297.5	0.449
298.0	0.418
298.5	0.387
299.0	0.357
299.5	0.329
300.0	0.301
300.5	0.279
301.0	0.257
301.5	0.234
302.0	0.211
302.5	0.190
303.0	0.170
303.5	0.154
304.0	0.139
304.5	0.127
305.0	0.114
305.5	0.102
306.0	0.092
306.5	0.083
307.0	0.075
307.5	0.068
308.0	0.063
308.5	0.059
309.0	0.055
309.5	0.053
310.0	0.049
310.5	0.046
311.0	0.044
311.5	0.042
312.0	0.039
312.5	0.038
313.0	0.037
313.5	0.034
314.0	0.033
314.5	0.032
315.0	0.030
315.5	0.027
316.0	0.025
316.5	0.022
317.0	0.018
317.5	0.018
318.0	0.015
318.5	0.012
319.0	0.011
319.5	0.010
320.0	0.010
320.5	0.009
321.0	0.010
321.5	0.009
322.0	0.009
322.5	0.010
323.0	0.012
323.5	0.013
324.0	0.011
324.5	0.010
325.0	0.007
325.5	0.009
326.0	0.009
326.5	0.009
327.0	0.010
327.5	0.009
328.0	0.009
328.5	0.008
329.0	0.009
329.5	0.010
330.0	0.012
330.5	0.011
331.0	0.010
331.5	0.011
332.0	0.013
332.5	0.013
333.0	0.012
333.5	0.011
334.0	0.012
334.5	0.012
335.0	0.012
335.5	0.012
336.0	0.011
336.5	0.007
337.0	0.005
337.5	0.003
338.0	0.002
338.5	0.001
339.0	-0.001
339.5	-0.001
340.0	0.000
340.5	-0.001
341.0	0.001
341.5	0.001
342.0	0.002
342.5	0.003
343.0	0.005
343.5	0.007
344.0	0.011
344.5	0.013
345.0	0.014
345.5	0.015
346.0	0.017
346.5	0.020
347.0	0.021
347.5	0.021
348.0	0.023
348.5	0.026
349.0	0.026
349.5	0.025
350.0	0.025


Sample 25
3/25/2021 5:54 PM
Wavelength (nm)	10mm Absorbance
//WLCalib: Shift 	0.14000	
//WLCalib: 261S 	0.08000	
//WLCalib: 362S 	0.02000	
//WLCalib: 484S 	-0.04000	
//WLCalib: 529S 	0.04000	
//WLCalib: 823S 	-0.28000	
//QSpecEnd: 
220.0	6.541
220.5	6.351
221.0	6.169
221.5	5.985
222.0	5.811
222.5	5.635
223.0	5.468
223.5	5.302
224.0	5.130
224.5	4.964
225.0	4.819
225.5	4.706
226.0	4.620
226.5	4.554
227.0	4.501
227.5	4.456
228.0	4.416
228.5	4.381
229.0	4.350
229.5	4.321
230.0	4.294
230.5	4.267
231.0	4.242
231.5	4.217
232.0	4.192
232.5	4.161
233.0	4.127
233.5	4.094
234.0	4.070
234.5	4.050
235.0	4.039
235.5	4.036
236.0	4.042
236.5	4.061
237.0	4.086
237.5	4.119
238.0	4.172
238.5	4.236
239.0	4.313
239.5	4.390
240.0	4.463
240.5	4.528
241.0	4.590
241.5	4.647
242.0	4.709
242.5	4.777
243.0	4.859
243.5	4.961
244.0	5.065
244.5	5.154
245.0	5.234
245.5	5.307
246.0	5.378
246.5	5.449
247.0	5.521
247.5	5.589
248.0	5.655
248.5	5.717
249.0	5.777
249.5	5.832
250.0	5.884
250.5	5.940
251.0	5.999
251.5	6.062
252.0	6.136
252.5	6.208
253.0	6.277
253.5	6.342
254.0	6.400
254.5	6.449
255.0	6.492
255.5	6.531
256.0	6.565
256.5	6.598
257.0	6.622
257.5	6.637
258.0	6.643
258.5	6.645
259.0	6.642
259.5	6.631
260.0	6.619
260.5	6.605
261.0	6.586
261.5	6.564
262.0	6.539
262.5	6.506
263.0	6.464
263.5	6.410
264.0	6.343
264.5	6.261
265.0	6.168
265.5	6.070
266.0	5.976
266.5	5.887
267.0	5.800
267.5	5.713
268.0	5.613
268.5	5.512
269.0	5.416
269.5	5.327
270.0	5.242
270.5	5.157
271.0	5.072
271.5	4.987
272.0	4.901
272.5	4.812
273.0	4.724
273.5	4.635
274.0	4.546
274.5	4.458
275.0	4.369
275.5	4.277
276.0	4.175
276.5	4.069
277.0	3.963
277.5	3.853
278.0	3.741
278.5	3.627
279.0	3.514
279.5	3.403
280.0	3.299
280.5	3.196
281.0	3.093
281.5	2.988
282.0	2.883
282.5	2.779
283.0	2.677
283.5	2.577
284.0	2.482
284.5	2.392
285.0	2.306
285.5	2.222
286.0	2.139
286.5	2.054
287.0	1.964
287.5	1.873
288.0	1.787
288.5	1.706
289.0	1.628
289.5	1.551
290.0	1.475
290.5	1.396
291.0	1.315
291.5	1.231
292.0	1.154
292.5	1.080
293.0	1.009
293.5	0.938
294.0	0.869
294.5	0.802
295.0	0.738
295.5	0.679
296.0	0.625
296.5	0.577
297.0	0.535
297.5	0.497
298.0	0.462
298.5	0.427
299.0	0.395
299.5	0.363
300.0	0.333
300.5	0.308
301.0	0.283
301.5	0.258
302.0	0.232
302.5	0.209
303.0	0.188
303.5	0.169
304.0	0.153
304.5	0.140
305.0	0.127
305.5	0.114
306.0	0.102
306.5	0.092
307.0	0.083
307.5	0.076
308.0	0.070
308.5	0.065
309.0	0.060
309.5	0.056
310.0	0.053
310.5	0.049
311.0	0.047
311.5	0.045
312.0	0.041
312.5	0.040
313.0	0.038
313.5	0.037
314.0	0.035
314.5	0.032
315.0	0.030
315.5	0.027
316.0	0.025
316.5	0.021
317.0	0.017
317.5	0.016
318.0	0.013
318.5	0.011
319.0	0.009
319.5	0.009
320.0	0.009
320.5	0.007
321.0	0.008
321.5	0.009
322.0	0.012
322.5	0.013
323.0	0.015
323.5	0.016
324.0	0.016
324.5	0.015
325.0	0.014
325.5	0.016
326.0	0.016
326.5	0.016
327.0	0.016
327.5	0.015
328.0	0.014
328.5	0.013
329.0	0.012
329.5	0.011
330.0	0.013
330.5	0.011
331.0	0.009
331.5	0.009
332.0	0.011
332.5	0.013
333.0	0.012
333.5	0.010
334.0	0.010
334.5	0.010
335.0	0.009
335.5	0.008
336.0	0.007
336.5	0.005
337.0	0.004
337.5	0.002
338.0	0.002
338.5	0.002
339.0	0.002
339.5	0.001
340.0	0.000
340.5	-0.002
341.0	-0.001
341.5	0.001
342.0	0.001
342.5	0.002
343.0	0.003
343.5	0.005
344.0	0.007
344.5	0.008
345.0	0.008
345.5	0.010
346.0	0.010
346.5	0.011
347.0	0.011
347.5	0.010
348.0	0.015
348.5	0.016
349.0	0.014
349.5	0.013
350.0	0.012


Sample 26
3/25/2021 5:54 PM
Wavelength (nm)	10mm Absorbance
//WLCalib: Shift 	0.14000	
//WLCalib: 261S 	0.08000	
//WLCalib: 362S 	0.02000	
//WLCalib: 484S 	-0.04000	
//WLCalib: 529S 	0.04000	
//WLCalib: 823S 	-0.28000	
//QSpecEnd: 
220.0	6.800
220.5	6.611
221.0	6.427
221.5	6.242
222.0	6.053
222.5	5.869
223.0	5.691
223.5	5.506
224.0	5.317
224.5	5.126
225.0	4.954
225.5	4.819
226.0	4.713
226.5	4.632
227.0	4.566
227.5	4.511
228.0	4.459
228.5	4.413
229.0	4.370
229.5	4.332
230.0	4.294
230.5	4.257
231.0	4.220
231.5	4.184
232.0	4.144
232.5	4.096
233.0	4.042
233.5	3.988
234.0	3.942
234.5	3.901
235.0	3.866
235.5	3.843
236.0	3.829
236.5	3.828
237.0	3.835
237.5	3.850
238.0	3.879
238.5	3.924
239.0	3.978
239.5	4.036
240.0	4.092
240.5	4.144
241.0	4.194
241.5	4.242
242.0	4.293
242.5	4.353
243.0	4.424
243.5	4.515
244.0	4.608
244.5	4.689
245.0	4.762
245.5	4.828
246.0	4.891
246.5	4.956
247.0	5.019
247.5	5.082
248.0	5.141
248.5	5.200
249.0	5.255
249.5	5.306
250.0	5.353
250.5	5.403
251.0	5.458
251.5	5.518
252.0	5.584
252.5	5.649
253.0	5.712
253.5	5.774
254.0	5.828
254.5	5.877
255.0	5.918
255.5	5.955
256.0	5.984
256.5	6.015
257.0	6.038
257.5	6.055
258.0	6.063
258.5	6.067
259.0	6.064
259.5	6.056
260.0	6.044
260.5	6.031
261.0	6.015
261.5	5.995
262.0	5.971
262.5	5.941
263.0	5.904
263.5	5.857
264.0	5.794
264.5	5.719
265.0	5.631
265.5	5.543
266.0	5.455
266.5	5.373
267.0	5.295
267.5	5.217
268.0	5.130
268.5	5.037
269.0	4.950
269.5	4.866
270.0	4.790
270.5	4.710
271.0	4.632
271.5	4.557
272.0	4.479
272.5	4.400
273.0	4.318
273.5	4.237
274.0	4.157
274.5	4.077
275.0	3.997
275.5	3.911
276.0	3.818
276.5	3.721
277.0	3.625
277.5	3.524
278.0	3.422
278.5	3.318
279.0	3.214
279.5	3.114
280.0	3.018
280.5	2.925
281.0	2.831
281.5	2.735
282.0	2.638
282.5	2.543
283.0	2.450
283.5	2.357
284.0	2.270
284.5	2.188
285.0	2.109
285.5	2.034
286.0	1.957
286.5	1.879
287.0	1.797
287.5	1.714
288.0	1.634
288.5	1.559
289.0	1.487
289.5	1.417
290.0	1.347
290.5	1.274
291.0	1.201
291.5	1.126
292.0	1.055
292.5	0.989
293.0	0.923
293.5	0.859
294.0	0.796
294.5	0.733
295.0	0.674
295.5	0.621
296.0	0.573
296.5	0.529
297.0	0.489
297.5	0.454
298.0	0.423
298.5	0.391
299.0	0.360
299.5	0.330
300.0	0.303
300.5	0.279
301.0	0.256
301.5	0.234
302.0	0.210
302.5	0.190
303.0	0.170
303.5	0.153
304.0	0.138
304.5	0.125
305.0	0.112
305.5	0.100
306.0	0.089
306.5	0.079
307.0	0.073
307.5	0.066
308.0	0.062
308.5	0.057
309.0	0.052
309.5	0.049
310.0	0.046
310.5	0.043
311.0	0.041
311.5	0.039
312.0	0.038
312.5	0.037
313.0	0.037
313.5	0.036
314.0	0.036
314.5	0.033
315.0	0.030
315.5	0.027
316.0	0.025
316.5	0.021
317.0	0.018
317.5	0.016
318.0	0.014
318.5	0.012
319.0	0.010
319.5	0.009
320.0	0.009
320.5	0.006
321.0	0.007
321.5	0.007
322.0	0.009
322.5	0.010
323.0	0.012
323.5	0.013
324.0	0.014
324.5	0.013
325.0	0.012
325.5	0.013
326.0	0.012
326.5	0.013
327.0	0.013
327.5	0.013
328.0	0.014
328.5	0.011
329.0	0.011
329.5	0.011
330.0	0.012
330.5	0.011
331.0	0.009
331.5	0.009
332.0	0.010
332.5	0.009
333.0	0.009
333.5	0.007
334.0	0.008
334.5	0.009
335.0	0.008
335.5	0.007
336.0	0.006
336.5	0.003
337.0	0.003
337.5	0.002
338.0	0.000
338.5	0.000
339.0	-0.001
339.5	-0.001
340.0	0.000
340.5	-0.001
341.0	0.000
341.5	0.000
342.0	-0.001
342.5	0.000
343.0	0.001
343.5	0.002
344.0	0.003
344.5	0.004
345.0	0.004
345.5	0.005
346.0	0.006
346.5	0.008
347.0	0.009
347.5	0.008
348.0	0.010
348.5	0.013
349.0	0.012
349.5	0.011
350.0	0.011


Sample 27
3/25/2021 5:54 PM
Wavelength (nm)	10mm Absorbance
//WLCalib: Shift 	0.14000	
//WLCalib: 261S 	0.08000	
//WLCalib: 362S 	0.02000	
//WLCalib: 484S 	-0.04000	
//WLCalib: 529S 	0.04000	
//WLCalib: 823S 	-0.28000	
//QSpecEnd: 
220.0	6.173
220.5	6.009
221.0	5.849
221.5	5.681
222.0	5.516
222.5	5.344
223.0	5.178
223.5	5.010
224.0	4.837
224.5	4.663
225.0	4.502
225.5	4.375
226.0	4.274
226.5	4.199
227.0	4.136
227.5	4.080
228.0	4.031
228.5	3.986
229.0	3.944
229.5	3.905
230.0	3.867
230.5	3.829
231.0	3.791
231.5	3.753
232.0	3.710
232.5	3.660
233.0	3.601
233.5	3.544
234.0	3.491
234.5	3.441
235.0	3.399
235.5	3.365
236.0	3.342
236.5	3.333
237.0	3.329
237.5	3.333
238.0	3.350
238.5	3.378
239.0	3.414
239.5	3.455
240.0	3.496
240.5	3.535
241.0	3.572
241.5	3.608
242.0	3.649
242.5	3.697
243.0	3.754
243.5	3.826
244.0	3.901
244.5	3.966
245.0	4.023
245.5	4.077
246.0	4.129
246.5	4.182
247.0	4.234
247.5	4.283
248.0	4.331
248.5	4.377
249.0	4.422
249.5	4.463
250.0	4.502
250.5	4.544
251.0	4.588
251.5	4.637
252.0	4.692
252.5	4.748
253.0	4.799
253.5	4.848
254.0	4.892
254.5	4.930
255.0	4.964
255.5	4.993
256.0	5.019
256.5	5.045
257.0	5.067
257.5	5.079
258.0	5.082
258.5	5.084
259.0	5.079
259.5	5.072
260.0	5.063
260.5	5.051
261.0	5.036
261.5	5.019
262.0	5.000
262.5	4.977
263.0	4.946
263.5	4.906
264.0	4.855
264.5	4.789
265.0	4.717
265.5	4.645
266.0	4.574
266.5	4.506
267.0	4.439
267.5	4.371
268.0	4.295
268.5	4.219
269.0	4.144
269.5	4.074
270.0	4.008
270.5	3.942
271.0	3.878
271.5	3.812
272.0	3.748
272.5	3.681
273.0	3.613
273.5	3.546
274.0	3.479
274.5	3.413
275.0	3.346
275.5	3.277
276.0	3.198
276.5	3.118
277.0	3.038
277.5	2.955
278.0	2.869
278.5	2.782
279.0	2.696
279.5	2.612
280.0	2.532
280.5	2.453
281.0	2.373
281.5	2.291
282.0	2.210
282.5	2.131
283.0	2.053
283.5	1.977
284.0	1.903
284.5	1.834
285.0	1.768
285.5	1.705
286.0	1.642
286.5	1.576
287.0	1.507
287.5	1.436
288.0	1.370
288.5	1.310
289.0	1.250
289.5	1.191
290.0	1.132
290.5	1.071
291.0	1.008
291.5	0.944
292.0	0.885
292.5	0.827
293.0	0.771
293.5	0.718
294.0	0.664
294.5	0.612
295.0	0.563
295.5	0.519
296.0	0.477
296.5	0.440
297.0	0.408
297.5	0.380
298.0	0.354
298.5	0.328
299.0	0.303
299.5	0.280
300.0	0.258
300.5	0.240
301.0	0.220
301.5	0.202
302.0	0.182
302.5	0.166
303.0	0.150
303.5	0.137
304.0	0.124
304.5	0.114
305.0	0.103
305.5	0.091
306.0	0.082
306.5	0.074
307.0	0.068
307.5	0.062
308.0	0.056
308.5	0.052
309.0	0.048
309.5	0.046
310.0	0.044
310.5	0.041
311.0	0.038
311.5	0.036
312.0	0.033
312.5	0.032
313.0	0.032
313.5	0.030
314.0	0.029
314.5	0.027
315.0	0.024
315.5	0.022
316.0	0.020
316.5	0.017
317.0	0.013
317.5	0.011
318.0	0.008
318.5	0.008
319.0	0.006
319.5	0.006
320.0	0.006
320.5	0.006
321.0	0.007
321.5	0.005
322.0	0.006
322.5	0.007
323.0	0.009
323.5	0.012
324.0	0.013
324.5	0.015
325.0	0.013
325.5	0.014
326.0	0.013
326.5	0.013
327.0	0.013
327.5	0.013
328.0	0.011
328.5	0.010
329.0	0.010
329.5	0.012
330.0	0.014
330.5	0.013
331.0	0.010
331.5	0.010
332.0	0.010
332.5	0.008
333.0	0.007
333.5	0.006
334.0	0.008
334.5	0.007
335.0	0.007
335.5	0.007
336.0	0.006
336.5	0.004
337.0	0.003
337.5	0.001
338.0	0.000
338.5	0.000
339.0	-0.001
339.5	-0.001
340.0	0.000
340.5	0.000
341.0	0.001
341.5	0.002
342.0	0.003
342.5	0.004
343.0	0.006
343.5	0.008
344.0	0.011
344.5	0.011
345.0	0.012
345.5	0.014
346.0	0.015
346.5	0.017
347.0	0.017
347.5	0.017
348.0	0.020
348.5	0.022
349.0	0.021
349.5	0.018
350.0	0.019

